TimeStamp,Delta_TP9,Delta_AF7,Delta_AF8,Delta_TP10,Theta_TP9,Theta_AF7,Theta_AF8,Theta_TP10,Alpha_TP9,Alpha_AF7,Alpha_AF8,Alpha_TP10,Beta_TP9,Beta_AF7,Beta_AF8,Beta_TP10,Gamma_TP9,Gamma_AF7,Gamma_AF8,Gamma_TP10,RAW_TP9,RAW_AF7,RAW_AF8,RAW_TP10,AUX_RIGHT,Accelerometer_X,Accelerometer_Y,Accelerometer_Z,Gyro_X,Gyro_Y,Gyro_Z,HeadBandOn,HSI_TP9,HSI_AF7,HSI_AF8,HSI_TP10,Battery,Elements
2023-01-11 22:33:12.963,,,,,,,,,,,,,,,,,,,,,,,,,,,,,,,,,,,,,,/muse/event/connected Muse-5257
2023-01-11 22:33:12.999,0.087240584,0.92721075,0.3625934,0.6805893,0.2953202,-0.16885702,-0.18385033,0.13525216,0.83293897,-0.14133964,-0.06123566,0.950807,1.5766797,-0.14659852,-0.33559227,1.0172508,1.5428045,-0.5705003,-0.7108793,1.0115304,828.022,838.9011,817.5458,885.2381,1263.9927,0.50030517578125,0.3428955078125,0.8765869140625,-5.14404296875,11.5142822265625,0.590667724609375,1,1.0,1.0,1.0,1.0,30.47
2023-01-11 22:33:14.029,-0.10163878,0.92721075,0.37587953,0.99503356,0.32154003,-0.16885702,-0.1458387,0.49158445,0.72830075,-0.14133964,-0.08912886,0.9824056,1.6366189,-0.14659852,-0.31920245,1.2232871,1.5481,-0.5705003,-0.72058976,1.1688728,823.5897,840.10986,778.0586,917.8755,1063.7362,0.21234130859375,0.14654541015625,0.94903564453125,0.70281982421875,5.12908935546875,17.5555419921875,1,1.0,1.0,1.0,1.0,30.47
2023-01-11 22:33:15.049,-0.10163878,1.361175,0.37587953,0.7629943,0.32154003,0.69661933,-0.1458387,0.73926574,0.72830075,0.57224995,-0.08912886,1.4357578,1.6366189,0.025459,-0.31920245,1.5394349,1.5481,-0.17591472,-0.72058976,0.9698544,818.7546,842.9304,813.91943,867.9121,928.3516,0.19189453125,0.27874755859375,0.8768310546875,7.259979248046875,-20.957489013671875,-0.13458251953125,1,1.0,1.0,1.0,1.0,30.47
2023-01-11 22:33:15.414,,,,,,,,,,,,,,,,,,,,,,,,,,,,,,,,,,,,,,/muse/elements/jaw_clench
2023-01-11 22:33:16.054,0.9462447,1.3719233,0.90054655,0.59265,0.86118144,0.6309727,0.09792435,0.69073725,1.3310031,0.32721373,0.3734174,1.3010391,1.3228124,-0.018984754,-0.2362344,1.4492189,1.2598132,-0.20803875,-0.05328793,0.9151211,831.6484,714.7985,692.23444,802.6374,758.315,0.3843994140625,0.5135498046875,0.787841796875,17.3162841796875,29.735260009765625,48.73382568359375,1,1.0,1.0,1.0,1.0,30.47
2023-01-11 22:33:16.493,,,,,,,,,,,,,,,,,,,,,,,,,,,,,,,,,,,,,,/muse/elements/blink
2023-01-11 22:33:16.715,,,,,,,,,,,,,,,,,,,,,,,,,,,,,,,,,,,,,,/muse/elements/jaw_clench
2023-01-11 22:33:17.081,1.0065976,1.4503093,0.90054655,0.6220019,0.91298527,0.6203086,0.09792435,0.65435696,1.3226277,0.2236652,0.3734174,1.1553599,1.3772486,-0.08920052,-0.2362344,1.4076872,1.3385082,-0.18190296,-0.05328793,0.84169716,849.3773,832.0513,769.19415,899.7436,1204.762,-0.009033203125,0.31280517578125,1.00811767578125,-9.989013671875,-4.26177978515625,-33.7054443359375,1,1.0,1.0,1.0,1.0,30.06
2023-01-11 22:33:18.098,1.0065976,0.5908465,0.90054655,0.6220019,0.91298527,0.4716899,0.09792435,0.65435696,1.3226277,0.25382438,0.3734174,1.1553599,1.3772486,-0.18787627,-0.2362344,1.4076872,1.3385082,0.08249042,-0.05328793,0.84169716,871.53845,834.0659,782.49084,909.81683,888.46155,0.1099853515625,0.367431640625,0.9205322265625,-1.51031494140625,-12.15728759765625,-15.5517578125,1,1.0,1.0,1.0,1.0,30.06
2023-01-11 22:33:19.127,1.0026765,0.54430646,0.90054655,0.6220019,0.8712352,0.41986397,0.09792435,0.65435696,1.3820639,0.31782186,0.3734174,1.1553599,1.6702728,-0.019695507,-0.2362344,1.4076872,1.3913695,-0.056032542,-0.05328793,0.84169716,816.337,835.6777,784.10254,859.0476,898.1319,0.09014892578125,0.471435546875,0.8936767578125,-5.181427001953125,7.40203857421875,4.05242919921875,1,1.0,1.0,1.0,1.0,30.06
2023-01-11 22:33:20.139,0.7199656,0.737694,0.84467804,0.90865403,0.43835196,0.118199214,0.5696067,0.5643787,1.103567,0.22151442,0.32112914,0.9286267,1.6523536,-0.1448211,-0.48121005,0.84349984,1.3244501,-0.57942665,-0.63265675,1.0685074,847.3626,838.0952,779.67035,866.30035,718.4249,0.07305908203125,0.10821533203125,0.920654296875,-23.9556884765625,12.224578857421875,90.30487060546875,1,1.0,1.0,1.0,1.0,30.06
2023-01-11 22:33:20.574,,,,,,,,,,,,,,,,,,,,,,,,,,,,,,,,,,,,,,/muse/elements/jaw_clench
2023-01-11 22:33:21.165,1.0369188,0.90114015,1.027419,1.0165823,0.82707655,0.17437617,0.8105809,0.5632443,1.3703682,0.19700529,0.3173939,0.9286267,1.3779898,-0.09327401,-0.42159885,0.93577486,1.4818714,-0.3102003,-0.7329906,1.0684332,855.0183,852.1978,781.28204,909.011,933.9927,-0.23455810546875,-0.20208740234375,0.959228515625,-15.260162353515625,11.775970458984375,-18.602294921875,1,1.0,1.0,1.0,1.0,30.06
2023-01-11 22:33:22.190,0.9343139,0.6896931,1.1714922,1.0165823,0.80963993,0.14737202,0.92499703,0.5632443,1.3046579,0.27187416,0.31518295,0.9286267,1.1324698,0.06307734,-0.3907604,0.93577486,1.2447945,-0.05047471,-0.75396514,1.0684332,835.2747,846.55676,789.34064,929.15753,963.8095,-0.1142578125,-0.3233642578125,0.9158935546875,-7.798309326171875,9.3609619140625,-21.196746826171875,1,1.0,1.0,1.0,1.0,30.06
2023-01-11 22:33:23.212,1.0638418,0.044511165,1.1714922,1.0165823,0.66212356,0.07454264,0.92499703,0.5632443,1.1951587,0.118049964,0.31518295,0.9286267,1.0392941,-0.08409228,-0.3907604,0.93577486,0.83124703,-0.016370304,-0.75396514,1.0684332,894.10254,863.0769,769.59705,909.81683,915.8608,0.1134033203125,-0.62060546875,0.7777099609375,27.1856689453125,8.635711669921875,-21.12945556640625,1,1.0,1.0,1.0,1.0,30.06
2023-01-11 22:33:23.508,,,,,,,,,,,,,,,,,,,,,,,,,,,,,,,,,,,,,,/muse/elements/jaw_clench
2023-01-11 22:33:23.752,,,,,,,,,,,,,,,,,,,,,,,,,,,,,,,,,,,,,,/muse/elements/jaw_clench
2023-01-11 22:33:24.246,1.2898265,0.2977265,0.2082299,1.0165823,0.8307202,0.091940686,-0.38885713,0.5632443,1.1951587,-0.026724324,0.18815592,0.9286267,1.2345368,0.030246492,0.7414781,0.93577486,0.9266122,0.14616358,1.186833,1.0684332,840.5128,855.0183,820.7692,808.2784,404.5421,-0.4013671875,-0.093505859375,0.93890380859375,-4.62066650390625,42.086944580078125,17.981719970703125,1,1.0,1.0,1.0,1.0,30.06
2023-01-11 22:33:24.313,,,,,,,,,,,,,,,,,,,,,,,,,,,,,,,,,,,,,,/muse/elements/jaw_clench
2023-01-11 22:33:25.276,1.2898265,0.38934156,0.15925182,1.0165823,0.8307202,-0.20990755,-0.4742186,0.5632443,1.1951587,-0.013703799,0.15298519,0.9286267,1.2345368,0.19350113,0.7193113,0.93577486,0.9266122,0.27261123,1.2027364,1.0684332,841.7216,844.1392,817.5458,761.9414,489.1575,-0.2615966796875,-0.240966796875,0.91802978515625,-5.674896240234375,12.882537841796875,-3.48419189453125,1,1.0,1.0,1.0,1.0,30.06
2023-01-11 22:33:26.307,1.2898265,0.39550626,0.60792994,1.0165823,0.8307202,-0.018743562,-0.1673667,0.5632443,1.1951587,0.1034731,0.16976252,0.9286267,1.2345368,-0.2182997,0.6070161,0.93577486,0.9266122,0.17595093,0.79812944,1.0684332,939.6337,849.3773,854.21246,840.5128,782.8938,-0.5394287109375,-0.146484375,0.816162109375,1.68975830078125,-65.72860717773438,7.64129638671875,1,2.0,1.0,1.0,2.0,30.06
2023-01-11 22:33:26.351,,,,,,,,,,,,,,,,,,,,,,,,,,,,,,,,,,,,,,/muse/elements/jaw_clench
2023-01-11 22:33:26.840,,,,,,,,,,,,,,,,,,,,,,,,,,,,,,,,,,,,,,/muse/elements/jaw_clench
2023-01-11 22:33:27.278,,,,,,,,,,,,,,,,,,,,,,,,,,,,,,,,,,,,,,/muse/elements/jaw_clench
2023-01-11 22:33:27.312,1.2898265,0.59606045,0.69636583,1.0165823,0.8307202,0.0758823,0.0018540962,0.5632443,1.1951587,0.16735384,0.17574097,0.9286267,1.2345368,-0.01631995,0.60854536,0.93577486,0.9266122,0.13001938,0.745148,1.0684332,712.381,817.9487,859.85345,803.8461,827.619,-0.026123046875,0.09185791015625,0.96343994140625,-10.826416015625,-2.863616943359375,-9.517974853515625,1,2.0,1.0,1.0,2.0,29.47
2023-01-11 22:33:27.473,,,,,,,,,,,,,,,,,,,,,,,,,,,,,,,,,,,,,,/muse/elements/blink
2023-01-11 22:33:27.681,,,,,,,,,,,,,,,,,,,,,,,,,,,,,,,,,,,,,,/muse/elements/blink
2023-01-11 22:33:28.344,1.2898265,0.48804018,0.69636583,1.0165823,0.8307202,0.054224286,0.0018540962,0.5632443,1.1951587,-0.11729773,0.17574097,0.9286267,1.2345368,0.23422146,0.60854536,0.93577486,0.9266122,0.15221988,0.745148,1.0684332,818.3516,830.0366,836.08057,897.72894,982.3443,-0.4681396484375,-0.0423583984375,0.92822265625,2.87109375,4.41131591796875,2.7813720703125,1,2.0,1.0,1.0,2.0,29.47
2023-01-11 22:33:28.489,,,,,,,,,,,,,,,,,,,,,,,,,,,,,,,,,,,,,,/muse/elements/blink
2023-01-11 22:33:28.592,,,,,,,,,,,,,,,,,,,,,,,,,,,,,,,,,,,,,,/muse/elements/jaw_clench
2023-01-11 22:33:29.352,1.2898265,0.91990274,0.69636583,1.0165823,0.8307202,-0.20444113,0.0018540962,0.5632443,1.1951587,-0.19299605,0.17574097,0.9286267,1.2345368,-0.16522783,0.60854536,0.93577486,0.9266122,-0.21312127,0.745148,1.0684332,865.4945,848.1685,834.87177,868.71796,736.55676,-0.48480224609375,-0.01983642578125,0.88262939453125,-12.80029296875,-21.18927001953125,-2.803802490234375,1,2.0,1.0,1.0,2.0,29.47
2023-01-11 22:33:30.385,1.2898265,-0.058862794,0.8517282,1.0165823,0.8307202,-0.3591346,-0.20294876,0.5632443,1.1951587,-0.061100684,0.36519292,0.9286267,1.2345368,-0.2267245,0.6183724,0.93577486,0.9266122,-0.24186067,0.6488027,1.0684332,809.89014,852.6007,849.7802,840.5128,710.3663,-0.425048828125,-0.2203369140625,0.85040283203125,41.952362060546875,18.9312744140625,32.501678466796875,1,2.0,1.0,1.0,2.0,29.47
2023-01-11 22:33:31.400,1.2898265,1.08538,1.1180696,1.0165823,0.8307202,0.24220543,-0.090383545,0.5632443,1.1951587,0.250041,0.36519292,0.9286267,1.2345368,-0.0447788,0.332229,0.93577486,0.9266122,-0.3157058,0.4795959,1.0684332,824.3956,930.7692,863.47986,811.50183,899.34064,-0.83367919921875,0.1392822265625,0.59197998046875,-15.768585205078125,-3.18511962890625,-10.63201904296875,1,2.0,1.0,1.0,2.0,29.47
2023-01-11 22:33:32.407,1.2898265,1.4459817,1.1180696,1.0165823,0.8307202,0.6745333,-0.090383545,0.5632443,1.1951587,0.24723697,0.36519292,0.9286267,1.2345368,0.22330599,0.332229,0.93577486,0.9266122,-0.25486913,0.4795959,1.0684332,885.2381,934.3956,857.03296,854.21246,697.8755,-0.70916748046875,-0.2181396484375,0.59979248046875,-1.757049560546875,0.70281982421875,-2.190704345703125,1,2.0,1.0,1.0,2.0,29.47
2023-01-11 22:33:33.431,1.2898265,1.4556556,1.1180696,0.66148627,0.8307202,0.7543561,-0.090383545,0.21054707,1.1951587,0.23957221,0.36519292,0.9407728,1.2345368,0.2596428,0.332229,0.92367506,0.9266122,-0.2549028,0.4795959,0.5750639,900.54944,819.9634,847.76556,870.7326,770.0,-0.7862548828125,-0.1959228515625,0.59954833984375,5.794525146484375,11.252593994140625,-6.646881103515625,1,1.0,1.0,1.0,1.0,29.47
2023-01-11 22:33:34.437,1.2898265,1.4556556,1.5491364,0.76628035,0.8307202,0.7543561,0.58721507,0.16590667,1.1951587,0.23957221,0.24304563,1.1119026,1.2345368,0.2596428,-0.24569921,1.1109627,0.9266122,-0.2549028,-0.9619091,0.91498053,739.3773,825.6044,949.707,717.2161,726.4835,-0.80645751953125,-0.06671142578125,0.5977783203125,4.508514404296875,5.0244140625,24.04541015625,1,1.0,1.0,1.0,1.0,29.47
2023-01-11 22:33:35.446,1.2898265,1.4556556,1.6928731,1.0143198,0.8307202,0.7543561,0.7495676,0.39842507,1.1951587,0.23957221,0.068365164,1.0519117,1.2345368,0.2596428,-0.2736645,1.2652779,0.9266122,-0.2549028,-0.8797629,1.1472864,846.9597,843.73627,816.337,844.94507,781.28204,-0.78961181640625,-0.076416015625,0.6204833984375,-1.09161376953125,1.24114990234375,1.532745361328125,1,1.0,1.0,1.0,1.0,29.47
2023-01-11 22:33:36.478,1.2898265,0.92066103,0.8888491,1.0143198,0.8307202,0.011010088,-0.3782998,0.39842507,1.1951587,-0.17896818,-0.24333262,1.0519117,1.2345368,-0.42581898,-0.6520763,1.2652779,0.9266122,-0.6351476,-1.0122483,1.1472864,857.4359,848.1685,837.28937,884.43225,787.326,-0.80096435546875,-0.1317138671875,0.58660888671875,-3.5589599609375,1.74957275390625,3.401947021484375,1,1.0,1.0,1.0,1.0,29.47
2023-01-11 22:33:37.485,1.2898265,0.91101396,1.3201067,1.0143198,0.8307202,0.50640196,0.02819854,0.39842507,1.1951587,0.5120334,0.2878216,1.0519117,1.2345368,-0.5246766,-0.48300192,1.2652779,0.9266122,-0.69669217,-0.90026426,1.1472864,810.696,842.52747,906.1905,829.6337,691.02563,-0.7928466796875,-0.0755615234375,0.62042236328125,-2.27294921875,-1.158905029296875,5.375823974609375,1,2.0,1.0,1.0,2.0,28.23
2023-01-11 22:33:38.508,1.2898265,0.80225164,1.6008981,1.0143198,0.8307202,0.7106777,0.26955664,0.39842507,1.1951587,0.55037796,0.2713397,1.0519117,1.2345368,-0.35093343,-0.3360582,1.2652779,0.9266122,-0.3772434,-0.850045,1.1472864,848.97437,852.6007,815.12823,853.4066,744.21246,-0.74755859375,-0.05548095703125,0.6527099609375,-4.822540283203125,4.2767333984375,-0.059814453125,1,2.0,1.0,1.0,2.0,28.23
2023-01-11 22:33:39.528,1.2898265,0.64232445,1.6008981,1.0143198,0.8307202,-0.15411237,0.26955664,0.39842507,1.1951587,0.17638966,0.2713397,1.0519117,1.2345368,0.02873978,-0.3360582,1.2652779,0.9266122,-0.014729853,-0.850045,1.1472864,830.84247,851.79486,855.0183,855.0183,716.0073,-0.7457275390625,-0.0615234375,0.65631103515625,-2.46734619140625,2.265472412109375,0.94207763671875,1,2.0,1.0,1.0,2.0,28.23
2023-01-11 22:33:40.551,1.2898265,0.7578696,0.81033725,1.0143198,0.8307202,-0.0033886982,-0.15701966,0.39842507,1.1951587,0.17754224,0.2931165,1.0519117,1.2345368,-0.07447472,0.39570448,1.2652779,0.9266122,-0.34250495,0.4117318,1.1472864,842.1245,847.76556,832.4542,825.6044,709.9634,-0.7454833984375,-0.06719970703125,0.6478271484375,-1.981353759765625,2.88604736328125,0.2392578125,1,2.0,1.0,1.0,2.0,28.23
2023-01-11 22:33:41.575,0.22657473,0.5108983,0.7003098,0.09352146,0.24401441,-0.06550656,0.06877438,0.12364736,0.5301263,-0.17487983,0.15947257,0.6101265,-0.007600691,-0.55037564,-0.078767166,0.9952632,0.06859437,-0.643447,-0.08671158,0.88418853,963.8095,850.58606,851.39197,844.94507,738.1685,-0.778564453125,-0.06439208984375,0.6043701171875,-3.880462646484375,13.121795654296875,0.8673095703125,1,1.0,1.0,1.0,1.0,28.23
2023-01-11 22:33:42.588,0.27452114,0.7575027,1.3117255,0.4043734,-0.013266558,0.45384952,1.0057019,-0.056258526,0.30629686,0.32983688,0.88745505,1.2391123,0.12306868,-0.44467416,0.036816593,1.3176818,-0.17876418,-0.91355085,-0.13806403,1.0335078,832.4542,846.9597,850.58606,860.2564,792.1612,-0.76116943359375,-0.06671142578125,0.62451171875,-1.876678466796875,4.433746337890625,0.88226318359375,1,1.0,1.0,1.0,1.0,28.23
2023-01-11 22:33:43.601,1.2155168,0.68217516,0.9172821,0.82308155,0.4127342,0.36219618,0.84285927,0.12373931,0.7161929,0.25873858,0.858085,1.2256756,0.6722457,-0.24561436,0.1733405,1.1550758,0.27928317,-0.49767506,-0.028645216,0.97698206,826.4103,853.8095,848.97437,850.989,735.34796,-0.7513427734375,-0.06976318359375,0.63232421875,-3.2000732421875,3.237457275390625,0.889739990234375,1,1.0,1.0,1.0,1.0,28.23
2023-01-11 22:33:44.619,0.7676494,0.25857997,0.3207103,0.503913,0.31254148,-0.11264989,0.2695384,0.3723504,1.3526009,-0.10590444,8.736853E-4,0.9680218,0.48805362,-0.171068,-0.09782224,0.8306297,0.012632489,-0.5072788,-0.3584482,0.55560994,831.2454,851.79486,856.63007,857.8388,757.1062,-0.7427978515625,-0.0679931640625,0.6455078125,-2.332763671875,2.444915771484375,1.772003173828125,1,1.0,1.0,1.0,1.0,28.23
2023-01-11 22:33:45.641,0.36911437,0.08963341,0.5138381,0.2122794,0.2262159,-0.10492478,0.41579202,0.2660749,1.3256323,0.07550958,0.07324568,0.96444654,0.29117358,-0.27318648,-0.32487676,0.3963944,-0.18206818,-0.70508456,-0.82792985,0.03645181,816.7399,846.9597,845.34796,832.0513,686.1905,-0.75274658203125,-0.0714111328125,0.6436767578125,-2.220611572265625,2.213134765625,1.55517578125,1,1.0,1.0,1.0,1.0,28.23
2023-01-11 22:33:46.658,0.9252684,0.06919613,0.43816587,0.30841532,1.3921193,0.10774616,0.32391164,0.61911356,1.7820036,0.48709348,0.47220406,1.0975422,0.49064335,-0.1783783,-0.24841101,0.63731587,0.0025394687,-0.6574069,-0.90952706,0.20838836,851.39197,849.7802,833.2601,832.8571,707.5458,-0.75421142578125,-0.06768798828125,0.63922119140625,-2.026214599609375,2.370147705078125,1.435546875,1,1.0,1.0,1.0,1.0,28.23
2023-01-11 22:33:47.684,0.97975737,-0.02937189,0.5797392,0.26522392,1.212316,-0.124833025,0.41537148,0.68682235,1.7159984,0.40781468,0.5289282,1.1744038,0.50871605,-0.1368127,-0.103965245,0.66821665,0.45069194,-0.47888887,-0.46029365,0.38678488,837.6923,843.3333,927.1429,805.4579,711.978,-0.7689208984375,-0.074951171875,0.6207275390625,-2.87109375,4.987030029296875,0.052337646484375,1,1.0,1.0,1.0,1.0,27.53
2023-01-11 22:33:48.700,0.5775735,0.24438082,0.8180754,0.07540508,0.5823156,-0.4062329,0.43112698,0.37461543,1.3206906,0.05445053,0.20146072,1.2416921,0.650373,-0.09511752,-0.051945176,0.73818547,0.96735096,-0.26315486,-0.3229434,0.74125665,832.4542,830.4396,1196.3004,828.022,736.1539,-0.78692626953125,-0.1026611328125,0.5908203125,-2.5421142578125,2.714080810546875,2.041168212890625,1,1.0,1.0,1.0,1.0,27.53
2023-01-11 22:33:49.717,0.78163975,0.5045762,0.8180754,0.3582744,0.77022827,-0.36046886,0.43112698,0.2902571,1.1795505,-0.04441775,0.20146072,1.0712118,0.7404689,-0.053370308,-0.051945176,0.8377953,1.0173062,-0.22181362,-0.3229434,0.9176912,684.9817,781.28204,760.7326,694.65204,731.7216,-0.7974853515625,-0.10540771484375,0.58184814453125,-4.5159912109375,3.94775390625,1.1065673828125,1,1.0,1.0,2.0,1.0,27.53
2023-01-11 22:33:50.737,0.940713,0.6373906,0.8180754,0.51254255,0.77281326,-0.26252252,0.43112698,-0.1045623,1.1293435,-0.056546804,0.20146072,0.8198995,0.77707475,-0.10296648,-0.051945176,0.96897084,1.0568862,-0.26965535,-0.3229434,0.9783073,861.8681,825.6044,695.05493,845.34796,755.4945,-0.76318359375,-0.08001708984375,0.6202392578125,-2.983245849609375,-0.560760498046875,1.51031494140625,1,1.0,1.0,1.0,1.0,27.53
2023-01-11 22:33:51.754,0.79843444,0.6373906,0.8180754,0.34616566,0.6890625,-0.26252252,0.43112698,0.42456144,0.86611587,-0.056546804,0.20146072,1.151767,0.5672464,-0.10296648,-0.051945176,1.281575,0.51487726,-0.26965535,-0.3229434,1.2486793,861.4652,849.7802,701.50183,852.6007,799.81683,-0.75750732421875,-0.07769775390625,0.63519287109375,-2.3028564453125,2.49725341796875,1.256103515625,1,1.0,1.0,1.0,1.0,27.53
2023-01-11 22:33:52.778,0.7860225,0.13311192,0.8180754,0.40111184,0.5071614,-0.20335366,0.43112698,0.32897627,0.9003678,0.14443538,0.20146072,1.151767,0.459073,-0.027843433,-0.051945176,1.1741768,0.4505159,-0.24743213,-0.3229434,1.193629,867.9121,853.00366,720.4396,868.315,812.3077,-0.75946044921875,-0.07940673828125,0.63623046875,-2.250518798828125,3.51409912109375,1.024322509765625,1,1.0,1.0,1.0,1.0,27.53
2023-01-11 22:33:53.799,0.43307877,0.3163928,0.8180754,0.1836523,1.0443826,-0.23575093,0.43112698,0.7628715,1.2538979,0.17937978,0.20146072,0.85091525,0.30604714,-0.16679502,-0.051945176,0.89581454,-0.05558529,-0.41709572,-0.3229434,0.78338414,856.63007,850.58606,758.71796,857.8388,786.9231,-0.76043701171875,-0.0770263671875,0.62908935546875,-2.13836669921875,2.332763671875,1.443023681640625,1,1.0,1.0,1.0,1.0,27.53
2023-01-11 22:33:54.812,0.456103,-0.21491677,0.42276677,0.35461465,0.9556308,-0.18869773,0.14430313,0.74541366,1.4117309,0.5204255,0.40863758,1.1470591,0.22150737,-0.64855707,-0.047164522,0.7598733,-0.23950933,-0.85798395,-0.2297932,0.6669771,860.65936,855.42126,772.8205,855.82416,807.0696,-0.760498046875,-0.07391357421875,0.63104248046875,-2.3626708984375,2.27294921875,1.457977294921875,1,1.0,1.0,1.0,1.0,27.53
2023-01-11 22:33:55.838,0.3522517,-0.1504627,0.43530217,0.30963463,0.7751458,-0.21406122,-0.025704917,0.6056688,1.4010729,0.47956297,0.4238131,1.1326712,0.111223765,-0.6616619,-0.16270041,0.6296557,-0.5863568,-1.0518018,-0.26530853,0.5364994,868.315,851.79486,790.14655,869.92676,844.1392,-0.76104736328125,-0.0748291015625,0.63299560546875,-2.639312744140625,2.16827392578125,2.6617431640625,1,1.0,1.0,1.0,1.0,27.53
2023-01-11 22:33:56.856,-0.295072,-0.15598156,0.65025675,-0.01530938,-0.07107484,-0.21007548,-0.050736375,0.1761403,1.0250629,0.007993301,0.11569521,0.90144455,-0.029058684,-0.5981734,-0.24417683,0.55046284,-0.291483,-0.9062459,-0.33328816,0.35927534,866.30035,845.7509,814.7253,890.87915,799.81683,-0.7645263671875,-0.057861328125,0.6270751953125,-2.19818115234375,2.4822998046875,1.652374267578125,1,1.0,1.0,1.0,1.0,26.66
2023-01-11 22:33:57.887,0.12154546,-0.11058548,0.96338874,0.15453784,0.26092684,-0.117626466,0.30844283,0.23466662,0.70355755,0.04110234,0.48525387,1.0391312,0.11336549,-0.43818948,0.11221199,0.55858094,-0.018361948,-0.64914364,0.07312806,0.49042517,848.1685,842.52747,822.381,880.0,801.02563,-0.7606201171875,-0.056640625,0.6309814453125,-3.4393310546875,1.9439697265625,0.70281982421875,1,1.0,1.0,1.0,1.0,26.66
2023-01-11 22:33:58.906,0.3496237,-0.035812713,0.873288,0.41406506,0.25557154,-0.19455084,0.09261245,0.306682,0.8281734,-0.07454917,0.46052298,1.078074,0.17312978,-0.4505543,0.09944325,0.49820754,0.021697093,-0.77588785,-0.08304127,0.39279905,834.0659,851.79486,838.49817,865.4945,766.3736,-0.75262451171875,-0.03472900390625,0.6302490234375,-2.773895263671875,1.996307373046875,2.714080810546875,1,1.0,1.0,1.0,1.0,26.66
2023-01-11 22:33:59.908,0.5686373,0.044946212,1.282173,0.5849658,0.09728437,-0.5040087,0.83657724,0.14013717,0.9382427,-0.32393748,0.31656036,0.90065914,0.20641837,-0.4470187,-0.08128762,0.5972464,0.22791305,-0.76414406,-0.56623656,0.48271224,850.989,850.58606,820.7692,866.7033,763.1502,-0.7568359375,-0.02825927734375,0.63916015625,-2.9608154296875,1.60003662109375,1.443023681640625,1,1.0,1.0,1.0,1.0,26.66
2023-01-11 22:34:00.940,0.21916565,-0.21397503,1.1950401,0.21152607,0.22336255,-0.55949736,0.6087477,-0.075517215,1.0147972,-0.15634084,0.40456975,1.1210396,0.48784488,-0.39188647,-0.11924333,0.9276685,0.86873734,-0.2763759,-0.46697977,0.916165,861.06226,849.7802,822.7839,864.68866,779.67035,-0.7572021484375,-0.0125732421875,0.63165283203125,-2.213134765625,2.908477783203125,1.293487548828125,1,1.0,1.0,1.0,1.0,26.66
2023-01-11 22:34:01.947,-0.08386199,-0.43662512,1.0783701,-0.041475717,0.45278925,-0.7442897,0.4940296,0.19332533,1.1119472,-0.051878862,0.4813101,1.1436043,0.6928653,-0.1556953,-0.16359729,1.1642594,0.9530367,-0.20335793,-0.43601817,1.1999711,819.9634,849.7802,814.3223,813.91943,695.05493,-0.75738525390625,-0.016357421875,0.63861083984375,-2.220611572265625,2.415008544921875,1.114044189453125,1,1.0,1.0,1.0,1.0,26.66
2023-01-11 22:34:02.973,0.18198644,-0.04960616,1.4967939,-0.11327831,0.20099045,-0.6097386,1.3321902,0.122473374,0.94053245,-0.26646242,1.0517274,1.0737137,0.7074128,-0.047549017,0.5299634,1.4187909,0.9663854,-0.17232141,-0.13778847,1.3257886,822.7839,840.5128,786.52014,799.81683,688.60803,-0.762939453125,0.0035400390625,0.636474609375,-1.09161376953125,1.039276123046875,2.52716064453125,1,1.0,1.0,1.0,1.0,26.66
2023-01-11 22:34:04.002,0.40703976,0.33611143,1.416973,0.59888494,0.051618796,-0.3085876,1.1961551,0.07653871,0.6101198,0.20819554,1.0412964,1.3718652,0.6215824,-0.18677503,0.38166383,1.4366717,0.8395639,-0.17952411,-0.22220588,1.2296488,836.4835,845.34796,811.50183,828.4249,727.28937,-0.7452392578125,0.0029296875,0.6505126953125,-1.712188720703125,1.876678466796875,3.327178955078125,1,1.0,1.0,1.0,1.0,26.66
2023-01-11 22:34:05.023,0.3919727,0.32005078,1.0619698,0.48348948,0.077625476,0.0042126123,0.45887366,8.551506E-4,0.36657557,0.22368512,0.32991672,1.3289559,0.3741545,-0.3233635,-0.12703334,1.1396463,0.22645412,-0.60190094,-0.46221313,0.7006629,839.304,840.5128,815.12823,835.2747,703.5165,-0.7947998046875,-0.00262451171875,0.62506103515625,-4.224395751953125,5.345916748046875,1.667327880859375,1,1.0,1.0,1.0,1.0,26.66
2023-01-11 22:34:06.062,0.77870435,0.806512,0.9005191,0.17928672,0.3255434,0.44563743,0.048985243,0.10997513,0.59483373,0.3633529,0.20317635,0.76,0.44044876,-0.45159894,-0.14649051,0.8052363,0.0794783,-0.79709136,-0.70583063,0.44970766,904.9817,831.6484,715.2015,825.2015,682.96704,-0.81671142578125,-0.06414794921875,0.6097412109375,1.487884521484375,6.557159423828125,-11.02081298828125,1,1.0,1.0,1.0,1.0,26.66
2023-01-11 22:34:07.072,1.0951083,1.0921849,0.9005191,0.3515442,0.49671456,0.75716716,0.048985243,0.20497519,0.4508069,0.3544426,0.20317635,0.47733286,0.6686605,-0.37280717,-0.14649051,1.0703875,0.30417436,-0.5831484,-0.70583063,0.8408019,954.1392,859.85345,740.18317,877.1795,879.19415,-0.7340087890625,-0.1966552734375,0.6036376953125,-0.5682373046875,4.2169189453125,1.00189208984375,1,1.0,1.0,1.0,1.0,26.16
2023-01-11 22:34:08.083,1.0951083,1.1360816,0.9005191,0.08691029,0.49671456,1.0707917,0.048985243,0.28872436,0.4508069,0.44859084,0.20317635,0.4219497,0.6686605,-0.1517677,-0.14649051,1.118092,0.30417436,-0.2894872,-0.70583063,1.273279,847.76556,884.43225,856.2271,863.8828,931.1722,-0.73095703125,-0.18536376953125,0.6177978515625,-1.77947998046875,-0.889739990234375,5.076751708984375,1,1.0,1.0,1.0,1.0,26.16
2023-01-11 22:34:09.101,1.0951083,1.2743275,0.9005191,0.063283876,0.49671456,0.9662953,0.048985243,0.19666047,0.4508069,0.507006,0.20317635,0.6323219,0.6686605,0.024049912,-0.14649051,0.88312787,0.30417436,0.23081613,-0.70583063,1.0812843,833.2601,860.65936,825.6044,822.381,828.022,-0.7470703125,-0.16888427734375,0.62152099609375,-2.938385009765625,2.99072265625,0.979461669921875,1,1.0,1.0,1.0,1.0,26.16
2023-01-11 22:34:10.134,1.0951083,0.95490146,0.9005191,0.017761217,0.49671456,0.42023218,0.048985243,0.045402866,0.4508069,0.44641313,0.20317635,0.6421318,0.6686605,0.14395992,-0.14649051,0.8746586,0.30417436,0.24506359,-0.70583063,0.8538505,804.2491,825.6044,1006.1172,886.04395,924.7253,-0.73370361328125,-0.14801025390625,0.63214111328125,-2.88604736328125,0.859832763671875,10.983428955078125,1,1.0,1.0,1.0,1.0,26.16
2023-01-11 22:34:11.147,1.0951083,0.87138504,0.9005191,0.35545716,0.49671456,0.29394102,0.048985243,0.15145575,0.4508069,0.4226573,0.20317635,0.4430319,0.6686605,0.08994126,-0.14649051,1.0182546,0.30417436,-0.014483167,-0.70583063,0.8793031,790.9524,838.0952,676.52014,833.2601,850.58606,-0.83380126953125,-0.20025634765625,0.53515625,-3.57391357421875,10.90118408203125,-5.57769775390625,1,1.0,1.0,1.0,1.0,26.16
2023-01-11 22:34:12.181,1.0951083,0.838267,0.9005191,0.46999142,0.49671456,0.4045897,0.048985243,0.09440958,0.4508069,0.3728743,0.20317635,0.14682332,0.6686605,0.10497283,-0.14649051,0.94225705,0.30417436,-0.1137228,-0.70583063,0.8885753,1007.72894,859.0476,762.3443,905.38464,1016.99634,-0.77001953125,-0.3345947265625,0.46148681640625,-4.972076416015625,-2.13836669921875,-3.2000732421875,1,1.0,1.0,1.0,1.0,26.16
2023-01-11 22:34:13.196,1.0951083,0.96419275,0.9005191,0.46999142,0.49671456,0.41537434,0.048985243,0.09440958,0.4508069,0.19662493,0.20317635,0.14682332,0.6686605,-0.111870416,-0.14649051,0.94225705,0.30417436,-0.2996715,-0.70583063,0.8885753,819.15753,840.10986,842.1245,882.4176,880.40295,-0.80181884765625,-0.29766845703125,0.4815673828125,-1.4654541015625,7.596435546875,-2.58697509765625,1,2.0,1.0,1.0,2.0,26.16
2023-01-11 22:34:14.220,1.0951083,1.4622757,0.9005191,0.72199,0.49671456,0.6190305,0.048985243,0.2421484,0.4508069,-0.07882372,0.20317635,0.96297103,0.6686605,-0.406461,-0.14649051,0.80882126,0.30417436,-0.8149516,-0.70583063,0.6973112,846.55676,848.1685,846.55676,902.96704,757.9121,-0.8016357421875,-0.28045654296875,0.470947265625,-3.506622314453125,1.54022216796875,0.695343017578125,1,1.0,1.0,1.0,1.0,26.16
2023-01-11 22:34:15.248,1.0951083,1.3206595,1.2509166,0.8836885,0.49671456,0.63361543,0.44786617,0.34190893,0.4508069,0.5277572,0.20609668,0.9606792,0.6686605,-0.4826816,-0.57612026,0.7718284,0.30417436,-0.66264886,-0.7444579,0.7385224,755.89746,837.28937,1071.392,867.1062,776.4469,-0.80328369140625,-0.2386474609375,0.50177001953125,-2.295379638671875,-0.740203857421875,12.8900146484375,1,1.0,1.0,1.0,1.0,26.16
2023-01-11 22:34:16.258,1.0951083,1.1883754,0.9572572,0.9943282,0.49671456,0.7496593,-0.09762983,0.5442792,0.4508069,0.5092959,-0.18622734,1.0752382,0.6686605,-0.5328797,-0.5488005,1.1086956,0.30417436,-0.63054925,-0.7497369,0.6083727,819.5604,824.7985,823.5897,798.20514,813.91943,-0.8575439453125,-0.06414794921875,0.52960205078125,-0.157012939453125,1.435546875,-1.353302001953125,1,1.0,1.0,1.0,1.0,26.16
2023-01-11 22:34:17.268,0.6183256,1.1883754,0.9572572,0.8152002,1.0615233,0.7496593,-0.09762983,0.56691855,1.1479466,0.5092959,-0.18622734,1.2261364,0.874432,-0.5328797,-0.5488005,1.2613417,0.51563585,-0.63054925,-0.7497369,1.1705903,836.08057,837.28937,839.304,848.97437,655.56775,-0.8472900390625,-0.03155517578125,0.49371337890625,-2.743988037109375,6.407623291015625,10.88623046875,1,1.0,1.0,1.0,1.0,25.53
2023-01-11 22:34:18.281,0.72456783,0.78797174,0.9572572,0.6041741,0.81364274,0.17130071,-0.09762983,0.45528084,1.3856174,0.13547012,-0.18622734,1.2999508,0.7511536,-4.1872446E-4,-0.5488005,1.06434,0.6222466,-0.20352659,-0.7497369,1.16154,829.6337,854.61536,790.9524,826.8132,786.1172,-0.8135986328125,-0.010498046875,0.585693359375,-2.94586181640625,-1.906585693359375,-5.921630859375,1,1.0,1.0,1.0,1.0,25.53
2023-01-11 22:34:19.304,0.802231,1.1002531,0.9572572,0.6239904,0.67114717,0.4104866,-0.09762983,0.50212836,1.510665,0.46499443,-0.18622734,1.2906532,0.71194506,-0.11492379,-0.5488005,0.73103124,0.5033799,-0.3414149,-0.7497369,0.4816477,836.8865,845.7509,802.23444,820.7692,718.022,-0.8365478515625,-0.059326171875,0.5350341796875,-2.235565185546875,2.452392578125,1.54022216796875,1,1.0,1.0,1.0,1.0,25.53
2023-01-11 22:34:20.312,0.7143833,0.78599477,0.7830394,0.5222128,0.58111495,0.40738374,0.12480458,0.48838195,1.2774267,0.44366476,-0.03798155,1.0595987,0.61014575,-0.40888464,-0.20504607,0.60726255,0.5233821,-0.5529394,-0.7222346,0.21891561,860.65936,838.0952,823.9927,869.12085,767.98535,-0.82110595703125,-0.0826416015625,0.560791015625,-3.072967529296875,1.1663818359375,-1.8841552734375,1,1.0,1.0,1.0,1.0,25.53
2023-01-11 22:34:21.324,0.93507874,0.4556034,1.2725185,0.44726542,0.45061523,-0.16231246,0.6455693,0.19880529,1.1296816,0.23717225,0.55255383,1.0946255,0.6398489,-0.42255953,-0.06267635,0.70007324,0.64089364,-0.5563275,-0.39066997,0.6049917,805.05493,832.4542,850.58606,772.4176,702.3077,-0.8115234375,-0.06689453125,0.583984375,-5.600128173828125,-3.33465576171875,-0.306549072265625,1,1.0,1.0,1.0,1.0,25.53
2023-01-11 22:34:22.334,0.81771374,0.78740823,0.8374661,0.5630349,0.5962039,0.1702129,0.14571153,0.43806568,0.9213533,0.14965864,0.3963559,1.0966066,0.8082351,-0.13753663,0.27947494,1.030583,0.78078806,-0.20884465,0.37825823,1.162655,1224.1025,959.7802,839.707,858.6447,866.7033,-0.81134033203125,-0.04888916015625,0.57232666015625,-6.34033203125,3.99261474609375,1.71966552734375,1,1.0,1.0,1.0,1.0,25.53
2023-01-11 22:34:23.357,0.69006103,0.9504721,0.21381997,0.23627816,0.54415405,0.29696152,0.12991212,0.3019021,0.9072088,-0.15604572,0.47606638,1.212605,0.728456,-0.1430253,0.24275178,0.9371547,0.88433975,-0.09516019,0.5053386,1.1105493,835.2747,874.35895,864.2857,861.4652,837.6923,-0.78778076171875,-0.0360107421875,0.6075439453125,-2.788848876953125,2.878570556640625,0.37384033203125,1,1.0,1.0,1.0,1.0,25.53
2023-01-11 22:34:24.375,0.69006103,0.9504721,0.03222638,0.4615927,0.54415405,0.29696152,0.040608104,0.23952839,0.9072088,-0.15604572,0.47423074,1.3854903,0.728456,-0.1430253,0.21146496,0.97535884,0.88433975,-0.09516019,0.4678003,1.0069518,861.06226,860.2564,819.5604,855.42126,773.22345,-0.7882080078125,-0.044189453125,0.5977783203125,-2.16827392578125,1.966400146484375,1.592559814453125,1,1.0,1.0,1.0,1.0,25.53
2023-01-11 22:34:25.406,0.36357868,0.4213875,0.6853789,0.4124203,0.24397339,-0.19088243,-0.06466031,0.62687325,1.0624298,-0.21318325,0.22859298,1.4855747,0.44104353,-0.31699726,0.11363025,0.9557981,0.34676608,-0.59756917,0.10498313,1.0743537,865.4945,859.45056,832.0513,907.8022,852.6007,-0.786376953125,-0.0457763671875,0.5997314453125,-3.9178466796875,1.973876953125,0.3887939453125,1,1.0,1.0,1.0,1.0,25.53
2023-01-11 22:34:26.416,0.8463184,-0.011162331,0.53193164,0.6425186,0.19541211,-0.2642074,-0.08087558,0.28139448,1.0391417,-0.041014638,0.18176684,1.3061535,0.6418779,-0.1785149,0.4286455,1.072963,0.5554882,-0.28699648,0.19857739,1.1072419,836.4835,846.55676,849.7802,844.1392,788.1319,-0.79638671875,-0.04217529296875,0.599365234375,-2.2430419921875,2.94586181640625,1.09161376953125,1,1.0,1.0,1.0,1.0,25.53
2023-01-11 22:34:27.428,0.6404191,0.15779693,0.26869422,0.3620897,0.29939267,-0.09732033,-0.17033419,0.3491803,1.1958557,0.106681645,0.18941182,1.1683787,0.59063596,-0.26717597,0.33013865,1.128296,0.5005206,-0.29543704,0.33342654,1.2317768,850.989,850.18317,860.65936,870.7326,823.9927,-0.79022216796875,-0.04925537109375,0.5933837890625,-2.400054931640625,3.0206298828125,0.8074951171875,1,1.0,1.0,1.0,1.0,25.17
2023-01-11 22:34:28.433,0.70446765,0.22028358,0.08922215,0.19233944,0.2963383,-0.18254563,-0.31427357,0.36038303,1.2117553,0.09579446,-0.22162737,1.1504495,0.30126965,-0.5596477,-0.06954582,0.7969103,0.23816389,-0.6116761,0.16714959,1.0445933,856.63007,851.39197,855.42126,873.1502,861.8681,-0.79522705078125,-0.0489501953125,0.5870361328125,-2.564544677734375,2.4224853515625,0.9271240234375,1,1.0,1.0,1.0,1.0,25.17
2023-01-11 22:34:29.450,0.4413392,0.14193484,0.32532778,0.15709396,0.46081978,-0.40314022,-0.2237373,0.5401931,1.2290272,-0.15713464,-0.1201376,0.9709163,0.2650971,-0.4710134,-0.41148484,0.24822429,-0.10489342,-0.8835332,-0.79803705,-0.0795534,861.4652,857.03296,844.5421,868.71796,861.4652,-0.8052978515625,-0.05169677734375,0.58056640625,-2.579498291015625,2.265472412109375,1.51031494140625,1,1.0,1.0,1.0,1.0,25.17
2023-01-11 22:34:30.479,-0.19328682,-0.21482562,1.0569823,0.09515438,0.270666,-0.17318453,-0.17027123,0.45868868,1.1254749,-0.12711804,-0.060265094,1.0193129,0.44224447,-0.4052624,-0.34635746,0.32126018,0.020351969,-0.5989116,-0.70957685,-0.045998402,845.34796,842.1245,1054.8718,868.315,830.84247,-0.80712890625,-0.04608154296875,0.57952880859375,-1.742095947265625,2.788848876953125,1.51031494140625,1,1.0,1.0,1.0,1.0,25.17
2023-01-11 22:34:31.504,0.6885231,0.060544785,1.1707158,0.67304933,0.3608103,0.058674484,0.080770046,0.42083856,1.1454957,-0.13277483,-0.18702969,0.9756297,0.39211598,-0.43810806,-0.29468244,0.24520631,0.37270957,-0.3806948,-0.6640325,0.15745007,852.6007,900.14655,1650.0,855.42126,772.8205,-0.8287353515625,-0.05322265625,0.55279541015625,-2.31781005859375,3.27484130859375,0.500946044921875,1,1.0,1.0,1.0,1.0,25.17
2023-01-11 22:34:32.530,1.3097888,0.3394053,1.1707158,1.1024303,0.66534436,0.09600912,0.080770046,0.72767276,1.1063031,-0.3502268,-0.18702969,1.3458012,0.52129656,-0.36844352,-0.29468244,0.5133236,0.6551398,-0.26391795,-0.6640325,0.40359035,796.99634,799.81683,664.83514,805.8608,730.9158,-0.83355712890625,-0.0531005859375,0.52947998046875,-2.3028564453125,2.51220703125,0.979461669921875,1,1.0,1.0,4.0,1.0,25.17
2023-01-11 22:34:33.534,1.310797,0.3394053,1.1707158,1.1184573,0.7376418,0.09600912,0.080770046,0.69912285,1.0589311,-0.3502268,-0.18702969,1.2504997,0.59954965,-0.36844352,-0.29468244,0.6682536,0.660155,-0.26391795,-0.6640325,0.5000511,823.9927,817.9487,772.4176,842.9304,770.80585,-0.84112548828125,-0.0599365234375,0.521240234375,-2.041168212890625,3.297271728515625,1.368255615234375,1,1.0,1.0,2.0,1.0,25.17
2023-01-11 22:34:34.560,1.310797,0.3394053,1.1707158,1.1184573,0.7376418,0.09600912,0.080770046,0.69912285,1.0589311,-0.3502268,-0.18702969,1.2504997,0.59954965,-0.36844352,-0.29468244,0.6682536,0.660155,-0.26391795,-0.6640325,0.5000511,885.64105,836.4835,743.00366,879.19415,735.34796,-0.84112548828125,-0.05218505859375,0.53326416015625,-2.594451904296875,1.413116455078125,1.323394775390625,1,1.0,1.0,2.0,1.0,25.17
2023-01-11 22:34:35.592,1.310797,0.3394053,1.1707158,1.1184573,0.7376418,0.09600912,0.080770046,0.69912285,1.0589311,-0.3502268,-0.18702969,1.2504997,0.59954965,-0.36844352,-0.29468244,0.6682536,0.660155,-0.26391795,-0.6640325,0.5000511,844.94507,845.34796,829.6337,808.68134,738.97437,-0.83056640625,-0.05682373046875,0.5438232421875,-2.55706787109375,2.071075439453125,1.398162841796875,1,2.0,1.0,1.0,2.0,25.17
2023-01-11 22:34:36.609,0.47354576,0.00876114,1.1280181,0.4613603,0.13498661,-0.39265728,1.3951944,0.10225178,1.0055411,-0.08291555,0.7529347,1.0555419,0.26843655,-0.2510016,1.2108463,1.027991,0.19713968,-0.43247247,0.7237723,1.1950371,839.304,867.1062,772.4176,823.9927,780.07324,-0.8260498046875,-0.061767578125,0.544189453125,-2.549591064453125,2.46734619140625,0.83740234375,1,1.0,1.0,1.0,1.0,24.72
2023-01-11 22:34:37.638,0.014374945,0.9277555,1.1134871,-0.021275043,0.284116,0.22031058,1.146567,0.27796,1.1783497,0.0718916,0.85805184,1.1653867,0.15503657,-0.42525047,0.905468,0.97045666,0.028303852,-0.7827184,0.47189486,1.1270555,846.55676,840.10986,756.30035,840.9158,801.8315,-0.8199462890625,-0.05963134765625,0.5494384765625,-2.444915771484375,2.280426025390625,1.143951416015625,1,1.0,1.0,1.0,1.0,24.72
2023-01-11 22:34:38.655,-0.2223294,0.41322407,0.9654737,-0.068287656,0.24243909,-0.16229817,0.53329384,0.07118207,1.1189142,0.06290374,0.66859967,1.1018559,-0.040695302,-0.58357036,0.040221326,0.8328401,-0.3584474,-0.86255026,-0.20302725,0.6038364,855.0183,845.7509,786.9231,858.6447,826.0073,-0.82373046875,-0.06005859375,0.54803466796875,-2.594451904296875,2.332763671875,1.27105712890625,1,1.0,1.0,1.0,1.0,24.72
2023-01-11 22:34:39.673,-0.277949,-0.29022947,0.9286559,-0.06781681,0.0023796044,-0.44484764,0.22996764,-0.19067812,0.89522356,-0.17243516,0.5049589,0.92173845,-0.025110967,-0.68415207,0.049195834,0.67435694,-0.3284882,-0.97543764,-0.18889162,0.49290642,859.0476,848.97437,761.9414,861.4652,843.73627,-0.8179931640625,-0.05816650390625,0.55169677734375,-2.61688232421875,2.28790283203125,1.27105712890625,1,1.0,1.0,1.0,1.0,24.72
2023-01-11 22:34:40.690,-0.5460985,-0.3322417,1.0663676,-0.29092243,-0.14033431,-0.33870625,0.68674076,-0.18673119,0.54263806,-0.22087686,0.5807031,0.79543096,-0.19717726,-0.60639256,0.22909549,0.34492043,-0.32932252,-0.94496185,-0.052153382,0.3632375,858.6447,849.7802,800.6227,864.2857,826.0073,-0.82135009765625,-0.05975341796875,0.55255126953125,-2.691650390625,2.190704345703125,0.994415283203125,1,1.0,1.0,1.0,1.0,24.72
2023-01-11 22:34:41.704,-0.39166278,-0.40592167,0.80539966,-0.2588975,-0.077934645,-0.48616895,0.69001454,0.053348593,0.764598,-0.34522396,0.4679577,1.0297773,0.020027034,-0.55105287,0.10629818,0.37147072,-0.3739015,-0.95253474,-0.15322274,0.39646548,853.00366,844.94507,832.8571,861.06226,830.0366,-0.8260498046875,-0.05322265625,0.554443359375,-2.594451904296875,2.220611572265625,0.590667724609375,1,1.0,1.0,1.0,1.0,24.72
2023-01-11 22:34:42.718,-0.05170817,-0.12974885,1.3637879,-0.2644084,0.31791502,-0.4727324,0.9449543,0.21243803,0.938374,-0.26705503,0.8397834,1.0594436,0.031474628,-0.5671394,0.1959525,0.29687592,-0.40742227,-1.1474218,-0.09959317,0.3375382,849.3773,846.9597,821.978,868.71796,832.0513,-0.81915283203125,-0.056640625,0.55865478515625,-2.3028564453125,2.61688232421875,1.248626708984375,1,1.0,1.0,1.0,1.0,24.72
2023-01-11 22:34:43.739,0.056545895,-0.5541717,1.3212701,-0.07481588,0.09035283,-0.5284512,0.682772,0.13438381,0.88664097,-0.17397532,0.80867124,0.96270734,-0.19792472,-0.6699054,0.30737114,0.18712685,-0.48686245,-1.0233169,-0.09700153,0.33599174,867.1062,854.21246,875.16486,890.07324,864.68866,-0.81707763671875,-0.0550537109375,0.55865478515625,-2.34771728515625,2.1533203125,1.114044189453125,1,1.0,1.0,1.0,1.0,24.72
2023-01-11 22:34:44.778,-0.20727563,-0.30684313,1.1478616,-0.18243001,0.08285583,-0.26593742,0.86052305,-0.008521967,0.8764154,-0.09246736,0.9573902,0.8531785,-0.018748498,-0.70451164,0.47554964,0.19879021,-0.40952983,-1.1109757,-0.062341128,0.28119615,846.55676,845.34796,865.09155,862.27106,818.7546,-0.8165283203125,-0.0518798828125,0.5599365234375,-2.3626708984375,2.213134765625,1.33087158203125,1,1.0,1.0,1.0,1.0,24.72
2023-01-11 22:34:45.795,0.14331163,0.20816688,1.3380698,0.1716291,0.26544294,0.046040192,1.2911494,0.14897592,0.7432672,-0.10588624,1.4216319,0.626713,-0.0024895784,-0.5023923,0.7713826,0.261846,-0.31815168,-0.83644587,0.103993915,0.30561295,857.4359,850.18317,858.24176,869.5238,851.39197,-0.81439208984375,-0.05023193359375,0.5579833984375,-2.385101318359375,2.25799560546875,1.547698974609375,1,1.0,1.0,1.0,1.0,24.72
2023-01-11 22:34:46.815,0.13061258,0.052263618,1.4139509,-0.17247756,-0.0021278923,-0.061064105,1.330292,-0.09665409,0.4012284,-0.027630275,1.2301024,0.30367017,-0.19470409,-0.5760395,0.72440624,0.15654625,-0.5586326,-0.90050447,0.23221673,0.17287931,846.9597,846.9597,872.74725,860.65936,815.9341,-0.81536865234375,-0.05120849609375,0.55670166015625,-2.086029052734375,2.332763671875,1.233673095703125,1,1.0,1.0,1.0,1.0,24.42
2023-01-11 22:34:47.841,0.96380955,0.4487427,1.3563062,0.17022179,0.26888758,-0.09057677,1.274746,-0.051868405,0.4940424,0.046680626,0.813059,0.30512708,-0.010509634,-0.5180702,0.7652523,0.19620666,-0.44470173,-0.9370919,0.1441695,0.12430817,863.47986,820.7692,854.21246,892.0879,815.12823,-0.83941650390625,-0.04925537109375,0.51812744140625,-1.906585693359375,2.758941650390625,1.069183349609375,1,1.0,1.0,1.0,1.0,24.42
2023-01-11 22:34:48.863,1.5491819,1.1806473,1.3563062,0.5946556,0.81585616,0.37938434,1.274746,0.008668453,0.35736853,-0.010598763,0.813059,0.002391505,0.5948974,-0.30436057,0.7652523,0.37742823,0.13473926,-0.68067247,0.1441695,0.10873793,813.5165,843.73627,864.2857,753.47986,762.3443,-0.82666015625,-0.041259765625,0.5511474609375,-2.250518798828125,2.0635986328125,1.8841552734375,1,1.0,1.0,1.0,1.0,24.42
2023-01-11 22:34:49.476,,,,,,,,,,,,,,,,,,,,,,,,,,,,,,,,,,,,,,/muse/elements/jaw_clench
2023-01-11 22:34:49.867,1.5491819,0.84579074,1.3563062,0.5946556,0.81585616,0.2965478,1.274746,0.008668453,0.35736853,0.1026122,0.813059,0.002391505,0.5948974,0.09675467,0.7652523,0.37742823,0.13473926,0.21873686,0.1441695,0.10873793,827.619,846.1539,802.6374,826.8132,760.32965,-0.8209228515625,-0.0430908203125,0.554443359375,-2.34771728515625,2.265472412109375,1.27105712890625,1,1.0,1.0,1.0,1.0,24.42
2023-01-11 22:34:50.885,1.0320014,0.4806599,1.3563062,0.5946556,0.08174413,-0.07790135,1.274746,0.008668453,0.7923412,-0.085175805,0.813059,0.002391505,0.36967093,-0.09485089,0.7652523,0.37742823,0.47093752,0.058226567,0.1441695,0.10873793,837.28937,846.1539,829.2308,844.5421,777.6557,-0.818115234375,-0.04278564453125,0.5567626953125,-2.40753173828125,2.03369140625,1.697235107421875,1,1.0,1.0,1.0,1.0,24.42
2023-01-11 22:34:51.909,1.19373,0.76512474,1.3563062,1.0619637,0.4535449,0.21192324,1.274746,0.60071945,0.7296661,-0.078513436,0.813059,0.6735932,0.18518199,-0.40286523,0.7652523,0.754966,-0.2190117,-0.7652814,0.1441695,0.6899462,845.7509,848.5714,805.8608,813.5165,755.4945,-0.8072509765625,-0.03875732421875,0.57318115234375,-2.714080810546875,1.772003173828125,-1.054229736328125,1,1.0,1.0,1.0,1.0,24.42
2023-01-11 22:34:52.931,1.4438034,0.5323098,1.3563062,1.0123426,0.7923495,0.18130514,1.274746,0.6478578,0.5574563,-0.047226768,0.813059,0.9745358,0.21851182,-0.14054957,0.7652523,1.0039483,-0.12969692,-0.18231227,0.1441695,0.8093906,842.1245,843.3333,792.5641,821.1722,763.5531,-0.8082275390625,-0.035400390625,0.572265625,-2.093505859375,1.5850830078125,0.97198486328125,1,1.0,1.0,1.0,1.0,24.42
2023-01-11 22:34:53.943,0.11935827,-0.5979666,1.3563062,0.11513968,0.59449667,-0.19341134,1.274746,0.22240804,1.2720512,-0.0085581085,0.813059,1.2818787,0.29076508,-0.028885739,0.7652523,0.9725372,-0.097801276,-0.26817173,0.1441695,0.89352006,828.8278,852.1978,790.9524,783.2967,775.64105,-0.7977294921875,-0.041748046875,0.58154296875,-2.504730224609375,1.95892333984375,1.637420654296875,1,1.0,1.0,1.0,1.0,24.42
2023-01-11 22:34:54.969,0.48806554,-0.20775075,0.8197212,0.42905462,0.43410164,-0.3018442,0.44341704,0.3232461,1.2359699,0.10122453,0.20207593,1.1633419,0.43377754,-0.19515072,0.20413423,0.9570588,0.029682225,-0.33369192,0.37266847,0.9944089,858.6447,851.79486,797.3993,849.3773,780.07324,-0.80413818359375,-0.03802490234375,0.57684326171875,-2.385101318359375,2.40753173828125,1.831817626953125,1,1.0,1.0,1.0,1.0,24.42
2023-01-11 22:34:55.994,0.76245064,0.109534144,0.472191,0.53979,0.33895046,-0.4422767,0.27274546,0.3973647,1.2700605,0.0793052,0.29131278,1.1387236,0.32626846,-0.2870199,0.28122115,0.96287787,0.10660802,-0.4422599,0.25072992,0.87625605,850.989,842.52747,825.2015,822.7839,793.7729,-0.8048095703125,-0.04052734375,0.5771484375,-2.51220703125,2.28790283203125,1.12152099609375,1,1.0,1.0,1.0,1.0,24.42
2023-01-11 22:34:57.007,0.25924003,0.117670104,0.32630503,0.16333812,0.2855103,-0.3218497,-0.35427698,0.29824555,1.2202888,-0.13555455,0.22546142,1.1717224,0.2925632,-0.31045544,0.31120884,0.6610741,0.12038911,-0.5235331,0.034286693,0.7770987,854.61536,841.7216,849.3773,850.18317,823.1868,-0.80169677734375,-0.04022216796875,0.57452392578125,-2.489776611328125,2.61688232421875,1.27105712890625,1,1.0,1.0,1.0,1.0,24.00
2023-01-11 22:34:58.011,0.16294438,-0.033396557,0.5478695,0.039142672,0.34265774,-0.4341136,0.19637766,0.27117193,1.167793,-0.2693979,0.29668698,0.9954928,0.25097314,-0.3879861,0.15586485,0.49557027,0.028426694,-0.5588573,-0.08828807,0.6476929,854.61536,840.9158,883.22345,857.8388,854.61536,-0.801513671875,-0.0419921875,0.57745361328125,-2.52716064453125,2.504730224609375,0.40374755859375,1,1.0,1.0,1.0,1.0,24.00
2023-01-11 22:34:59.027,0.79091454,0.21504973,1.1390114,0.8064267,0.56124026,-0.25726858,0.46327928,0.52364635,1.3847581,0.047396217,0.35015666,1.2250879,0.40276808,-0.33947384,0.35198635,0.75020736,0.22228074,-0.48462024,-0.10315865,0.5808285,864.2857,850.18317,806.6667,861.06226,851.79486,-0.8028564453125,-0.046875,0.5924072265625,-1.5252685546875,1.831817626953125,-0.201873779296875,1,1.0,1.0,1.0,1.0,24.00
2023-01-11 22:35:00.047,0.81969905,0.26366475,1.2882211,0.85355866,0.20078984,-0.29523167,0.47184524,0.18474324,0.64727074,0.083678305,0.18581013,0.7671241,0.36834753,-0.44446927,0.36475667,0.7022248,0.17335816,-0.529181,-0.20948394,0.48514214,898.93774,837.6923,907.8022,870.7326,827.619,-0.79205322265625,-0.0341796875,0.595947265625,-2.28790283203125,0.829925537109375,0.814971923828125,1,1.0,1.0,1.0,1.0,24.00
2023-01-11 22:35:01.076,0.82488835,0.9119893,1.2882211,-0.29995382,0.09829146,0.31607628,0.47184524,-0.3896889,0.1835708,0.2619862,0.18581013,0.0969129,0.6345555,-0.29680222,0.36475667,0.6716671,0.37413627,-0.5781629,-0.20948394,0.6966862,842.1245,834.87177,833.663,876.77655,845.34796,-0.77935791015625,-0.00897216796875,0.5650634765625,-4.53094482421875,4.78515625,4.6356201171875,1,1.0,1.0,1.0,1.0,24.00
2023-01-11 22:35:02.107,0.49296996,0.9535409,1.2882211,0.49653682,-0.037904125,0.22610043,0.47184524,0.011807366,0.781913,0.09939275,0.18581013,0.5150995,0.7386856,-0.441261,0.36475667,0.17699304,0.5620826,-0.92318076,-0.20948394,0.07096437,869.5238,840.5128,991.6117,934.7985,846.1539,-0.78125,-0.0184326171875,0.58709716796875,-12.54608154296875,4.38140869140625,2.385101318359375,1,1.0,1.0,1.0,1.0,24.00
2023-01-11 22:35:03.123,0.9311507,0.5296225,1.2882211,0.62285733,0.14375961,-0.07948082,0.47184524,0.25602633,0.9324,-0.06747149,0.18581013,1.0337938,0.9816836,-0.25561318,0.36475667,0.8095273,0.64103484,-0.4334404,-0.20948394,0.83095026,846.55676,846.9597,842.1245,856.2271,840.5128,-0.8092041015625,0.02166748046875,0.576416015625,-2.145843505859375,2.04864501953125,0.785064697265625,1,1.0,1.0,1.0,1.0,24.00
2023-01-11 22:35:04.157,0.73225105,0.2527552,1.2882211,0.6052573,0.19413842,-0.16984762,0.47184524,0.47380814,0.6899235,0.06519135,0.18581013,1.064382,0.7415097,-0.0937098,0.36475667,1.0532391,0.5571447,-0.26987255,-0.20948394,1.0681617,829.6337,837.6923,810.696,838.0952,805.8608,-0.80908203125,0.004638671875,0.58135986328125,-1.981353759765625,1.98883056640625,-2.444915771484375,1,1.0,1.0,1.0,1.0,24.00
2023-01-11 22:35:05.183,0.480715,0.17439295,1.2882211,0.62376106,0.15163788,0.057506766,0.47184524,0.30727735,0.22818154,0.07203482,0.18581013,0.7860619,0.5419626,-0.21879007,0.36475667,1.030083,0.35244912,-0.3702006,-0.20948394,0.98419595,821.978,842.52747,860.2564,822.7839,807.8755,-0.79144287109375,0.0238037109375,0.58441162109375,-2.392578125,1.861724853515625,2.093505859375,1,1.0,1.0,1.0,1.0,24.00
2023-01-11 22:35:06.211,0.5699665,0.36306423,1.2882211,0.21342248,0.2865917,-0.113690235,0.47184524,0.18642606,0.66577834,0.05885752,0.18581013,0.69008577,0.61119854,-0.45226032,0.36475667,0.9572135,0.47659042,-0.7292463,-0.20948394,1.0750519,830.84247,841.31866,816.337,813.5165,743.4066,-0.81463623046875,0.04803466796875,0.58233642578125,-2.130889892578125,3.349609375,0.291595458984375,1,1.0,1.0,1.0,1.0,24.00
2023-01-11 22:35:07.246,0.9294323,0.29972234,1.2882211,0.5919367,0.68420035,-0.21507628,0.47184524,0.45786718,0.69764537,0.015673842,0.18581013,0.79543525,0.62657166,-0.4254164,0.36475667,0.8606404,0.5552387,-0.7041975,-0.20948394,1.0450053,855.82416,846.1539,821.5751,819.5604,669.2674,-0.81378173828125,0.051025390625,0.55902099609375,-1.353302001953125,2.489776611328125,3.96270751953125,1,1.0,1.0,1.0,1.0,23.73
2023-01-11 22:35:08.255,0.96218705,0.22552772,1.2882211,0.5398008,0.8256004,-0.18322243,0.47184524,0.5912133,0.56543565,0.038225807,0.18581013,0.9479802,0.60599303,-0.3604856,0.36475667,0.9073527,0.4692958,-0.55595505,-0.20948394,0.7554845,866.7033,846.1539,755.4945,884.83514,729.304,-0.79766845703125,0.03289794921875,0.58721923828125,-2.788848876953125,0.0299072265625,-0.052337646484375,1,1.0,1.0,1.0,1.0,23.73
2023-01-11 22:35:09.264,1.1352365,0.39131838,1.2882211,0.7881967,0.59128356,-0.1738362,0.47184524,0.440735,0.7512254,-0.07345895,0.18581013,0.8019866,0.788929,-0.24318579,0.36475667,0.8557782,0.5294448,-0.3991418,-0.20948394,0.71574616,830.84247,861.8681,776.4469,840.10986,770.80585,-0.7745361328125,-0.00225830078125,0.60186767578125,-4.224395751953125,1.667327880859375,1.158905029296875,1,1.0,1.0,1.0,1.0,23.73
2023-01-11 22:35:10.289,0.87894803,0.5462428,1.1506321,0.7823712,0.39278343,0.094886646,0.5608391,0.33415794,0.62029856,0.22177726,0.65944034,0.5176257,0.7839434,-0.3082418,0.40299666,0.9853791,0.6022745,-0.48209095,0.19691984,0.81943214,841.7216,862.674,785.7143,834.87177,832.8571,-0.77996826171875,0.00848388671875,0.60455322265625,1.54022216796875,1.667327880859375,0.396270751953125,1,1.0,1.0,1.0,1.0,23.73
2023-01-11 22:35:11.317,0.87894803,1.6238052,1.2789452,0.7463814,0.39278343,0.9373026,0.9987054,0.526858,0.62029856,0.6036271,0.83078873,0.8133373,0.7839434,0.12238087,0.22177023,0.9322913,0.6022745,-0.48196498,-0.0712034,1.0790069,863.8828,840.9158,809.89014,876.77655,869.12085,-0.78094482421875,-0.02154541015625,0.639404296875,-2.459869384765625,2.8411865234375,3.24493408203125,1,1.0,1.0,1.0,1.0,23.73
2023-01-11 22:35:12.342,0.47855866,0.79783857,1.3090135,0.5404471,-0.067272924,0.5415502,0.8629165,0.2504688,0.45931312,0.36434484,0.69509035,0.8142905,0.70247734,-0.30357155,0.079713106,0.72746396,0.4682569,-0.83568245,-0.41464356,0.79240733,834.4689,834.4689,774.83514,870.32965,948.0952,-0.8009033203125,-0.10296630859375,0.480224609375,-6.23565673828125,5.136566162109375,-2.400054931640625,1,1.0,1.0,1.0,1.0,23.73
2023-01-11 22:35:13.358,0.63145566,1.1242552,1.1090125,0.32205492,-0.10605023,0.79346395,0.5877411,-0.030636078,0.63603157,0.51700926,0.36107346,0.9132334,0.7209586,-0.17047131,0.13265279,0.82686514,0.40295678,-0.68744564,-0.40655604,0.59543484,834.87177,848.1685,864.68866,854.61536,908.60803,-0.78289794921875,-0.0291748046875,0.605712890625,-2.093505859375,1.158905029296875,0.70281982421875,1,1.0,1.0,1.0,1.0,23.73
2023-01-11 22:35:14.369,0.41644022,0.96206146,0.81877273,-0.048828766,-0.072105795,0.62681895,0.585708,-0.1181278,0.5170812,0.467263,0.29715434,0.5835718,0.5816194,-0.18065895,0.39980328,1.0809855,0.31416598,-0.51261073,0.26612982,0.81153536,853.8095,854.61536,850.18317,861.06226,877.5824,-0.78582763671875,-0.0352783203125,0.6043701171875,-2.6617431640625,2.519683837890625,2.1832275390625,1,1.0,1.0,1.0,1.0,23.73
2023-01-11 22:35:15.395,-0.025679933,-0.2476858,0.55993253,-0.040301107,-0.45457608,-0.39046454,0.45012316,-0.13561907,0.066417746,-0.19327721,0.4081006,0.1482543,0.2927774,-0.23693193,0.2556957,0.7095869,0.17644389,-0.47648367,0.14176394,0.8307007,844.5421,847.3626,863.47986,853.8095,889.2674,-0.7799072265625,-0.03021240234375,0.61297607421875,-2.639312744140625,2.43743896484375,1.084136962890625,1,1.0,1.0,1.0,1.0,23.73
2023-01-11 22:35:16.421,-0.11978772,-0.36616784,0.62171626,-0.2604766,-0.47616845,-0.6378445,0.39910144,-0.36665022,0.14182852,-0.22195934,0.28310525,0.288618,0.29699883,-0.31503078,0.2685332,0.6099418,0.22190931,-0.6258565,0.11706542,0.92385906,839.304,848.1685,840.10986,859.0476,806.26373,-0.77734375,-0.035888671875,0.61029052734375,-2.6019287109375,2.265472412109375,1.682281494140625,1,1.0,1.0,1.0,1.0,23.33
2023-01-11 22:35:17.425,0.45909017,-0.56951237,0.59299344,0.2358193,-0.077359125,-0.6024328,0.23223728,-0.16770667,0.17329483,-0.16593458,0.46508026,0.16276407,0.24789338,-0.4218004,0.17346115,0.5668293,0.21784306,-0.60051244,0.01733097,0.6957418,836.8865,848.1685,822.381,849.7802,788.93774,-0.79095458984375,-0.03082275390625,0.61102294921875,-2.115936279296875,2.3028564453125,0.83740234375,1,1.0,1.0,1.0,1.0,23.33
2023-01-11 22:35:18.437,0.72726303,-0.37554044,0.41019008,0.1201982,0.5647902,-0.31932986,0.019456528,-0.31472385,0.35529697,-0.11943496,0.37426302,0.11980157,0.3006479,-0.35108623,0.06280793,0.45499137,0.19274129,-0.614927,-0.23940012,0.6070065,839.707,851.39197,838.0952,859.85345,791.3553,-0.775390625,-0.0211181640625,0.61834716796875,-2.13836669921875,2.250518798828125,1.293487548828125,1,1.0,1.0,1.0,1.0,23.33
2023-01-11 22:35:19.465,1.0606245,-0.21525374,0.49739903,0.27617124,0.8527623,-0.38902622,0.25231853,0.14025338,0.36000553,-0.21844119,0.19810927,0.26912645,0.27269763,-0.33807355,0.13946675,0.42798263,0.19389853,-0.7617057,-0.07087998,0.4771686,845.7509,848.5714,861.4652,862.27106,827.2161,-0.7894287109375,-0.01800537109375,0.611328125,-2.026214599609375,2.6019287109375,1.248626708984375,1,1.0,1.0,1.0,1.0,23.33
2023-01-11 22:35:20.490,0.2688709,-0.39954156,0.29725945,0.46918216,0.04658371,-0.6534867,0.30564964,0.027764922,0.37130845,-0.07803527,0.24830097,0.45164645,0.158261,-0.33815393,0.2169419,0.57026684,0.047739748,-0.6515936,0.264306,0.651562,854.21246,840.10986,803.8461,831.2454,782.49084,-0.7669677734375,-0.0177001953125,0.61376953125,-0.85235595703125,1.68975830078125,-0.216827392578125,1,1.0,1.0,1.0,1.0,23.33
2023-01-11 22:35:21.520,0.44660574,0.581674,0.5748561,0.68323326,0.4284356,-0.31535307,0.52933663,0.15698093,0.8163263,-0.046705548,0.31052268,0.5143953,0.40220183,-0.2018096,0.31882104,0.73066473,0.21905214,-0.33101374,0.48637065,0.9411966,841.7216,852.6007,804.65204,843.73627,807.8755,-0.7623291015625,-0.02130126953125,0.62725830078125,-3.529052734375,1.5252685546875,1.9439697265625,1,1.0,1.0,1.0,1.0,23.33
2023-01-11 22:35:22.528,0.95946354,0.82471365,0.42806983,0.8132663,0.4560786,0.20667386,0.35344312,0.30097985,0.8592902,0.34189868,0.24681142,0.47192132,0.3916089,-0.24156015,0.29063115,0.819239,0.17342408,-0.4915611,0.07804391,0.85608983,853.8095,851.39197,811.50183,831.6484,827.2161,-0.7764892578125,-0.02069091796875,0.62310791015625,-2.1832275390625,2.385101318359375,1.31591796875,1,1.0,1.0,1.0,1.0,23.33
2023-01-11 22:35:23.553,1.2066048,0.637652,0.4866044,1.1119548,0.95760983,0.1912843,0.15742548,0.7372167,1.4161522,0.34189868,-0.099638335,0.9905611,0.3993061,-0.19265835,0.18549454,0.7135146,0.22172983,-0.63062507,-0.16272967,0.58487964,802.23444,846.1539,818.3516,798.20514,865.89746,-0.77313232421875,-0.02227783203125,0.63232421875,-2.55706787109375,1.951446533203125,0.725250244140625,1,1.0,1.0,1.0,1.0,23.33
2023-01-11 22:35:24.573,1.2338105,0.025245795,0.5603125,1.211396,1.2644151,0.06988866,0.3108566,0.950983,1.4120322,0.17076501,0.16766095,1.0079582,0.37639603,-0.20273994,0.032162156,0.6360805,0.28034768,-0.60459065,-0.42045474,0.56780237,855.82416,843.3333,845.7509,841.31866,892.8938,-0.779541015625,-0.00994873046875,0.61822509765625,-2.91595458984375,2.3626708984375,1.039276123046875,1,1.0,1.0,1.0,1.0,23.33
2023-01-11 22:35:25.600,1.0464455,0.4095024,0.5090677,0.8152108,0.7817178,0.0682763,0.3386513,0.69700754,1.1868703,0.46048284,0.27207887,0.826553,0.5256893,-0.21649557,-0.06864812,0.7562706,0.07453126,-0.49388424,-0.57344127,0.11966302,855.82416,858.6447,835.6777,865.89746,878.7912,-0.724853515625,-0.0343017578125,0.6363525390625,-5.420684814453125,0.231781005859375,5.316009521484375,1,1.0,1.0,1.0,1.0,23.33
2023-01-11 22:35:26.298,,,,,,,,,,,,,,,,,,,,,,,,,,,,,,,,,,,,,,/muse/elements/jaw_clench
2023-01-11 22:35:26.627,0.95470554,0.73155016,0.49930125,0.8437502,0.8471453,0.17201686,0.25582564,0.762606,1.307021,0.5685228,0.32493362,1.0016495,0.5861075,-0.19207953,0.020607421,0.9624219,0.32349542,-0.2338507,-0.06257081,0.4161868,844.5421,896.9231,437.17947,828.022,860.2564,-0.740478515625,-0.02130126953125,0.6585693359375,-6.5496826171875,5.682373046875,-3.955230712890625,1,1.0,1.0,1.0,1.0,23.06
2023-01-11 22:35:27.646,1.0792454,0.8139034,0.76271147,1.0588951,0.75407976,0.35220814,0.10581075,0.9903835,0.871389,0.122181356,0.20753263,0.9529288,0.6291326,0.036342084,0.15554056,1.0230247,0.3767775,-0.08449998,0.30465978,0.6431242,866.30035,869.92676,878.3883,863.47986,925.9341,-0.7388916015625,-0.0068359375,0.6710205078125,-4.224395751953125,0.800018310546875,0.1495361328125,1,1.0,1.0,1.0,1.0,23.06
2023-01-11 22:35:28.650,1.0977885,1.046028,0.76271147,1.0588951,0.590407,0.57639265,0.10581075,0.9903835,0.58891386,0.36728567,0.20753263,0.9529288,0.37929505,0.120927684,0.15554056,1.0230247,0.22755954,0.0039898055,0.30465978,0.6431242,843.73627,859.45056,859.0476,855.42126,875.56775,-0.72467041015625,0.01025390625,0.657470703125,-2.026214599609375,2.22808837890625,2.519683837890625,1,1.0,1.0,1.0,1.0,23.06
2023-01-11 22:35:29.667,0.57027864,0.98679435,0.76271147,0.5078771,0.32870224,0.29279053,0.10581075,0.35424998,0.8169937,0.35299078,0.20753263,0.75360453,0.39351782,0.0149144195,0.15554056,0.6754298,0.16547874,-0.27627495,0.30465978,0.7419524,848.5714,839.707,838.0952,842.52747,890.07324,-0.74884033203125,0.0126953125,0.676513671875,-1.89910888671875,2.3626708984375,1.218719482421875,1,1.0,1.0,1.0,1.0,23.06
2023-01-11 22:35:30.678,0.9550873,0.708642,1.1189969,0.97817224,0.70803237,0.30570358,0.61087954,0.66725844,0.8169937,-0.13815266,0.048610393,0.77650875,0.5385242,-0.10449287,0.2798943,0.7319993,0.29020038,-0.50289196,0.05138046,0.77142394,841.7216,851.39197,856.2271,835.2747,841.31866,-0.72711181640625,0.02154541015625,0.6754150390625,-2.624359130859375,1.712188720703125,1.24114990234375,1,1.0,1.0,1.0,1.0,23.06
2023-01-11 22:35:31.694,0.89929956,0.34250703,1.1438763,0.6158463,0.2569241,0.060962025,0.5059126,0.22539495,0.42735007,-0.19138382,0.390112,0.66725534,0.4056898,-0.105604105,0.3136863,0.86537063,0.41281545,-0.3015976,0.078357995,0.8269704,841.7216,846.1539,857.03296,845.7509,844.94507,-0.74139404296875,0.01458740234375,0.65789794921875,-1.5252685546875,3.289794921875,2.160797119140625,1,1.0,1.0,1.0,1.0,23.06
2023-01-11 22:35:32.710,0.6423162,-0.17298654,0.5387036,0.4634333,0.3395933,-0.17534135,0.04534006,0.43768165,0.45964193,-0.046091627,0.18336685,0.8937844,0.47143203,-0.26339963,0.2501086,0.9286648,0.34003362,-0.29461035,0.2499167,0.9547095,840.5128,851.79486,840.9158,852.1978,858.24176,-0.7349853515625,0.01715087890625,0.6654052734375,-2.893524169921875,2.61688232421875,1.532745361328125,1,1.0,1.0,1.0,1.0,23.06
2023-01-11 22:35:33.733,0.2312987,-0.28233925,-0.024166394,0.14331762,0.20343527,-0.43431026,0.046547752,0.20190181,0.43104422,-0.043524034,0.18591869,0.80124605,0.30552402,-0.30313212,0.31055367,0.8205624,0.2406477,-0.33420357,0.032700375,0.65747947,855.42126,857.03296,845.34796,844.1392,882.01465,-0.77044677734375,0.00799560546875,0.62078857421875,-1.816864013671875,9.0020751953125,-2.5421142578125,1,1.0,1.0,1.0,1.0,23.06
2023-01-11 22:35:34.727,,,,,,,,,,,,,,,,,,,,,,,,,,,,,,,,,,,,,,/muse/elements/blink
2023-01-11 22:35:34.759,0.105533786,0.4909715,0.6619705,0.30272198,-0.18208022,-0.42406744,0.04186734,0.23264253,0.2074166,-0.20373145,0.15966512,0.51821554,0.25054494,-0.23662588,-0.03452251,0.6929423,0.18159188,-0.53715503,-0.41253695,0.213152,850.58606,843.3333,838.0952,867.50916,865.4945,-0.7724609375,-0.011474609375,0.58795166015625,-1.861724853515625,1.00189208984375,4.2169189453125,1,1.0,1.0,1.0,1.0,23.06
2023-01-11 22:35:35.773,0.32623583,0.8091217,0.9744955,0.48916936,-0.08946583,0.13690697,0.04936866,0.51157326,0.118350364,-0.07288665,0.11655346,0.37259835,0.31152806,-0.08319314,0.22770758,0.46938163,0.40010533,-0.2296179,0.16339116,0.2040095,828.022,855.42126,832.8571,821.5751,855.42126,-0.76177978515625,-0.01239013671875,0.640380859375,-3.66363525390625,1.936492919921875,1.906585693359375,1,1.0,1.0,1.0,1.0,23.06
2023-01-11 22:35:36.804,0.32623583,0.5598539,0.54581887,0.449868,-0.08946583,0.037012644,0.2198169,0.59087193,0.118350364,-0.014204757,0.2621931,0.8996068,0.31152806,0.18238518,0.54398304,1.3320055,0.40010533,0.23710556,0.37531045,1.1583195,800.6227,841.31866,840.9158,817.9487,872.74725,-0.755615234375,-0.02001953125,0.646484375,-2.519683837890625,2.071075439453125,0.336456298828125,1,1.0,1.0,1.0,1.0,22.67
2023-01-11 22:35:37.808,0.5178075,0.47833234,0.47570744,0.47558638,1.2172534,0.18560964,0.64105636,0.73437446,1.5798405,0.38804364,0.42762166,1.4634237,0.57370526,-0.00233511,0.43257305,1.2625653,0.33697376,-0.04759767,0.27069265,1.2376593,842.9304,865.4945,846.55676,825.2015,902.1612,-0.75189208984375,-0.02362060546875,0.64276123046875,-2.51220703125,3.401947021484375,0.321502685546875,1,1.0,1.0,1.0,1.0,22.67
2023-01-11 22:35:38.820,0.112814575,0.891747,0.61283326,0.17717959,0.6922196,0.33188674,0.55258995,0.16328257,1.3885868,0.3754298,0.34336084,1.377567,0.701933,0.14095254,0.35112652,1.1050714,0.28003508,-0.21409586,0.30198678,1.2161608,842.1245,845.34796,822.7839,844.1392,872.74725,-0.764404296875,-0.02789306640625,0.65289306640625,-1.547698974609375,2.803802490234375,2.340240478515625,1,1.0,1.0,1.0,1.0,22.67
2023-01-11 22:35:39.833,0.20631136,0.99896437,0.8237177,-0.13990976,-0.047025878,0.48150635,0.3337103,-0.45152575,0.32051304,0.34742355,0.14930038,0.7943467,0.5643812,0.077509254,0.35253468,0.8668229,0.30230257,-0.17414014,0.38476855,1.1910801,854.21246,854.61536,848.1685,854.21246,898.1319,-0.75787353515625,-0.0250244140625,0.6368408203125,-2.938385009765625,2.385101318359375,1.128997802734375,1,1.0,1.0,1.0,1.0,22.67
2023-01-11 22:35:40.846,0.56125224,0.33935556,0.6065177,0.48614937,0.4815028,-0.12975663,0.12041702,0.257671,0.51410466,0.014786537,0.18309374,0.72765356,0.52532756,-0.2729841,0.2462579,0.8159903,0.22022411,-0.3523581,0.2150926,0.94458485,864.68866,838.9011,865.09155,858.24176,929.5604,-0.81109619140625,-0.03973388671875,0.6195068359375,-0.97198486328125,14.826507568359375,0.246734619140625,1,1.0,1.0,1.0,1.0,22.67
2023-01-11 22:35:41.881,1.0517021,1.2177647,0.8448692,1.024772,0.77162546,0.19468977,0.5025658,0.7214676,0.63538563,0.60990006,0.12645778,0.74666345,0.6521016,-0.10403651,0.17855158,0.7464209,0.30738214,-0.41418725,0.238822,0.73437387,848.1685,845.34796,852.1978,865.89746,881.2088,-0.772705078125,-0.032470703125,0.62359619140625,-2.250518798828125,0.7177734375,2.99072265625,1,1.0,1.0,1.0,1.0,22.67
2023-01-11 22:35:42.904,0.87283856,0.47553322,0.49320683,1.032922,0.15566902,-0.23500308,0.13524076,0.6591186,0.3100882,0.2831404,0.48674908,0.6952309,0.6568072,0.123145305,0.4441264,0.7072065,0.4111815,-0.020795763,0.6557152,0.17503257,857.8388,853.4066,838.0952,842.52747,844.5421,-0.78436279296875,-0.0091552734375,0.6341552734375,-2.64678955078125,2.61688232421875,3.99261474609375,1,1.0,1.0,1.0,1.0,22.67
2023-01-11 22:35:43.921,0.92241,0.37153834,0.59437764,1.032922,0.4856246,-0.009900834,0.41714314,0.6591186,0.8673055,0.34983417,0.7362755,0.6952309,0.8337617,0.092998974,0.43137187,0.7072065,0.72980267,0.14044671,0.671522,0.17503257,840.9158,849.7802,860.2564,786.9231,904.57874,-0.7572021484375,-0.0235595703125,0.6446533203125,-2.265472412109375,2.5421142578125,0.91217041015625,1,1.0,1.0,1.0,1.0,22.67
2023-01-11 22:35:44.949,0.75022465,0.08266805,0.6180157,0.3316521,0.42471406,-0.25099027,0.5058772,0.5915818,0.94183713,0.17022587,0.77109444,1.1819725,0.7767147,0.041388437,0.50556105,1.2097433,0.464664,0.006186513,0.43124807,1.2150971,857.03296,850.58606,832.0513,858.6447,845.7509,-0.75433349609375,-0.0130615234375,0.63140869140625,-2.40753173828125,1.996307373046875,1.308441162109375,1,1.0,1.0,1.0,1.0,22.67
2023-01-11 22:35:45.969,0.39863914,-0.25690752,0.27232575,0.03896881,0.090552405,-0.45003307,0.29975092,0.10140453,0.7930741,-0.004681483,0.47962317,1.0653701,0.45384938,-0.09770212,0.3642486,0.8060703,0.1654572,-0.21976724,0.27039483,1.0507512,853.00366,844.1392,842.52747,843.73627,836.8865,-0.76611328125,-0.01226806640625,0.63702392578125,-2.213134765625,2.026214599609375,1.7047119140625,1,1.0,1.0,1.0,1.0,22.67
2023-01-11 22:35:46.998,0.5203537,-0.2879004,0.31122288,0.17670265,0.35370946,-0.521284,0.20687596,0.27081874,0.71172476,-0.2343136,0.057521295,0.64122796,0.23120001,0.022099761,0.13735941,0.5750037,0.08960763,-0.17740676,0.19039252,0.88013506,854.61536,844.5421,846.9597,854.21246,819.15753,-0.75164794921875,-0.00909423828125,0.64483642578125,-2.729034423828125,2.385101318359375,0.64300537109375,1,1.0,1.0,1.0,1.0,22.42
2023-01-11 22:35:48.029,0.031490102,-0.24180415,0.4288142,0.025259512,-0.056365784,-0.7382491,0.5303864,0.10213886,0.23779131,-0.5073386,0.09902105,0.6289717,0.24047166,-0.09389951,0.16709672,0.69767135,-0.062482793,-0.13865814,-0.054162253,0.7505762,854.21246,858.24176,835.2747,843.3333,827.2161,-0.75823974609375,-0.01025390625,0.63616943359375,-2.31781005859375,2.10845947265625,1.278533935546875,1,1.0,1.0,1.0,1.0,22.42
2023-01-11 22:35:49.037,-0.09430717,-0.08171452,0.5414043,-0.10819233,0.012337351,-0.40188363,0.45009407,-0.04159739,0.27204847,-0.38409775,0.5225983,0.72894144,0.089936815,-0.42278394,0.07216498,0.89669275,-0.17421713,-0.3588139,0.082424134,0.71145225,847.76556,845.34796,834.0659,863.47986,834.4689,-0.7650146484375,-0.00860595703125,0.63848876953125,-2.6318359375,2.145843505859375,1.4654541015625,1,1.0,1.0,1.0,1.0,22.42
2023-01-11 22:35:50.048,0.2640823,-0.24421723,0.355346,0.07224622,-0.26280323,-0.7396212,0.13869973,-0.3627076,0.42950517,-0.26722565,0.50260764,0.7246885,0.14350879,-0.345299,-0.043555867,0.8264009,0.042591896,-0.40703344,0.12196527,0.62979686,853.8095,854.21246,847.76556,857.8388,844.94507,-0.75335693359375,-0.00927734375,0.6414794921875,-2.392578125,2.392578125,0.95703125,1,1.0,1.0,1.0,1.0,22.42
2023-01-11 22:35:51.077,0.43939063,0.11755834,0.28721425,0.4106454,0.63122666,0.10988697,-0.09849197,0.65128493,0.83256435,0.023032071,0.11570216,0.9832177,0.3008849,-0.28067374,0.015269365,0.8325124,0.21450232,-0.38317537,0.24476305,0.72383803,840.10986,853.4066,851.39197,849.7802,833.2601,-0.7529296875,-0.0067138671875,0.6317138671875,-3.1103515625,1.8243408203125,0.299072265625,1,1.0,1.0,1.0,1.0,22.42
2023-01-11 22:35:52.110,0.87862754,0.45186675,0.8912348,1.0376047,0.9084588,0.33722195,0.039354447,0.94193405,0.82622635,0.07530842,0.15634462,0.9920628,0.45562154,-0.06835788,-0.28637618,0.8823458,0.37876424,-0.22363505,-0.24891007,0.6637839,863.8828,844.5421,852.1978,883.6264,854.21246,-0.763671875,0.00146484375,0.6490478515625,-2.310333251953125,1.8243408203125,1.682281494140625,1,1.0,1.0,1.0,1.0,22.42
2023-01-11 22:35:53.130,0.8831626,0.23643772,0.8721821,0.8446635,0.53317577,-0.29863524,0.37023002,0.20080534,0.7181217,-0.07878618,0.1788138,0.84969425,0.36555257,-0.20880033,-0.18115021,0.7526743,0.5788893,-0.32609278,-0.6392568,0.72896546,859.85345,855.82416,852.6007,846.55676,873.95605,-0.77685546875,-0.00909423828125,0.62310791015625,-3.656158447265625,3.3795166015625,-0.25421142578125,1,1.0,1.0,1.0,1.0,22.42
2023-01-11 22:35:54.139,1.0914836,-0.059198365,1.0207947,0.71157175,0.5464672,-0.22928488,0.52441156,-0.07704161,0.61789674,0.15185641,0.17764597,0.94004536,0.42758134,-0.1426575,-0.021953233,0.7199563,0.6532338,-0.2528898,-0.351189,0.9437223,869.5238,838.49817,832.8571,861.06226,902.5641,-0.78204345703125,-0.008056640625,0.6109619140625,-3.850555419921875,4.0972900390625,0.5682373046875,1,1.0,1.0,1.0,1.0,22.42
2023-01-11 22:35:55.155,1.0914836,0.32314205,0.8430568,0.21746258,0.5464672,-0.20928542,0.11724708,0.048054617,0.61789674,0.03852939,0.65065205,1.1679631,0.42758134,0.42284712,0.15961361,0.8242835,0.6532338,0.40130162,0.03637408,0.9660733,813.1135,857.4359,839.304,828.4249,862.674,-0.7760009765625,-0.00958251953125,0.62060546875,-1.98883056640625,2.093505859375,1.203765869140625,1,1.0,1.0,1.0,1.0,22.42
2023-01-11 22:35:56.174,0.21942309,-0.10849397,0.7462091,0.16312757,0.29090637,-0.34139693,0.26463023,-0.15583056,0.21463408,-0.03870866,0.69036716,0.90722376,0.62784725,0.48782635,0.17034186,0.8333919,0.92908823,0.71689034,-0.23458195,0.48032904,854.21246,855.42126,851.79486,854.61536,838.9011,-0.784912109375,-0.0174560546875,0.61041259765625,-2.5421142578125,1.697235107421875,1.21124267578125,1,1.0,1.0,1.0,1.0,22.05
2023-01-11 22:35:57.183,0.2822666,-0.12325736,0.7529144,0.7180554,0.19593196,-0.40532008,0.31072193,0.08311634,0.0058914684,0.0039474913,0.21838214,1.0136309,0.59703434,-0.11312468,-0.04877566,0.780523,0.84079057,0.17427498,-0.3455855,0.55698127,904.17584,846.55676,846.55676,859.0476,832.4542,-0.7822265625,-0.01873779296875,0.612060546875,-3.372039794921875,3.99261474609375,0.16448974609375,1,1.0,1.0,1.0,1.0,22.05
2023-01-11 22:35:58.192,0.9145698,0.7084792,0.6207187,0.92623967,0.7182807,0.17287543,0.19300024,0.60287774,1.417974,0.40416458,0.28733322,1.3366231,0.51027143,-0.009303642,-0.092191674,0.719603,0.7022463,-0.013093136,-0.27182844,0.6506681,860.2564,863.0769,871.9414,827.2161,794.57874,-0.8082275390625,-0.03399658203125,0.60369873046875,-2.03369140625,3.028106689453125,1.772003173828125,1,1.0,1.0,1.0,1.0,22.05
2023-01-11 22:35:59.202,0.78836006,1.1292378,0.723546,0.95905024,0.6681118,0.4576332,-0.025402514,0.7206905,1.3877852,0.40416458,0.19287226,1.2938981,0.40611154,0.11341708,-0.094844446,0.5675286,0.67582643,0.1316152,-0.14921574,0.6949463,476.66666,484.72528,549.59705,482.30768,794.9817,-0.790283203125,-0.03375244140625,0.60015869140625,-2.863616943359375,1.846771240234375,1.57012939453125,1,1.0,1.0,1.0,1.0,22.05
2023-01-11 22:35:59.388,,,,,,,,,,,,,,,,,,,,,,,,,,,,,,,,,,,,,,/muse/elements/blink
2023-01-11 22:35:59.493,,,,,,,,,,,,,,,,,,,,,,,,,,,,,,,,,,,,,,/muse/elements/jaw_clench
2023-01-11 22:36:00.170,,,,,,,,,,,,,,,,,,,,,,,,,,,,,,,,,,,,,,/muse/elements/blink
2023-01-11 22:36:00.223,0.78836006,1.2096779,0.723546,0.95905024,0.6681118,0.4832441,-0.025402514,0.7206905,1.3877852,0.39989337,0.19287226,1.2938981,0.40611154,0.07291337,-0.094844446,0.5675286,0.67582643,0.1386722,-0.14921574,0.6949463,1067.7656,730.5128,997.6557,1046.8132,798.20514,-0.77386474609375,-0.0343017578125,0.6119384765625,-0.79254150390625,2.250518798828125,1.31591796875,1,1.0,1.0,1.0,1.0,22.05
2023-01-11 22:36:01.239,0.78836006,1.2096779,0.723546,0.95905024,0.6681118,0.4832441,-0.025402514,0.7206905,1.3877852,0.39989337,0.19287226,1.2938981,0.40611154,0.07291337,-0.094844446,0.5675286,0.67582643,0.1386722,-0.14921574,0.6949463,850.989,888.46155,834.87177,827.2161,827.619,-0.774658203125,-0.01837158203125,0.64599609375,-2.938385009765625,0.979461669921875,1.413116455078125,1,2.0,1.0,1.0,2.0,22.05
2023-01-11 22:36:02.249,0.78836006,0.8406182,0.723546,0.95905024,0.6681118,-0.12667464,-0.025402514,0.7206905,1.3877852,0.14951335,0.19287226,1.2938981,0.40611154,-0.014717332,-0.094844446,0.5675286,0.67582643,-0.29777214,-0.14921574,0.6949463,835.2747,857.03296,803.8461,843.3333,838.49817,-0.750732421875,-0.00872802734375,0.65606689453125,-2.3028564453125,2.654266357421875,1.06170654296875,1,2.0,1.0,1.0,2.0,22.05
2023-01-11 22:36:03.265,0.8073087,0.5454791,1.0414685,0.8077771,0.5702945,-0.32123205,0.18479688,0.58668303,0.8923839,0.07271358,0.26240563,0.67095524,0.5694467,0.07408438,0.23481831,0.93505317,0.39412522,-0.34985724,0.15318678,1.270954,873.5531,859.85345,789.7436,859.85345,757.1062,-0.7476806640625,-0.01422119140625,0.6497802734375,-2.489776611328125,2.250518798828125,1.3458251953125,1,1.0,1.0,1.0,1.0,22.05
2023-01-11 22:36:04.284,1.2533995,0.30515093,0.8642448,0.93718725,1.4288005,0.10632469,0.15524936,1.1502376,1.3371577,0.19742522,0.3162357,1.5111134,0.6500425,0.06245775,0.09554753,0.8432389,0.35527816,-0.41815594,0.15667614,0.9018955,849.3773,851.39197,822.7839,852.1978,749.85345,-0.75384521484375,-0.0093994140625,0.64971923828125,-2.519683837890625,2.31781005859375,1.188812255859375,1,1.0,1.0,1.0,1.0,22.05
2023-01-11 22:36:05.306,0.5300748,-0.12046414,0.4846989,0.41029924,0.59951997,-0.17507626,0.27727738,0.578882,0.96493995,-0.052702997,0.2951498,1.453098,0.44984987,-0.1721591,0.009885574,0.7043291,0.11178212,-0.5897589,-0.25401667,0.48591673,858.24176,849.3773,826.8132,850.989,816.7399,-0.75067138671875,-0.0076904296875,0.65057373046875,-2.22808837890625,2.55706787109375,1.31591796875,1,1.0,1.0,1.0,1.0,22.05
2023-01-11 22:36:06.339,0.66382366,-0.048525427,0.4425365,0.43344325,0.44079012,-0.2789953,0.18355097,0.42876562,1.0846359,-0.05457494,0.15256694,1.0070196,0.57470596,-0.26200762,0.012131588,0.5574016,0.0860265,-0.62402564,-0.20108512,0.41671628,853.8095,853.00366,841.7216,860.2564,844.1392,-0.7486572265625,-0.01483154296875,0.6451416015625,-2.76641845703125,1.981353759765625,0.73272705078125,1,1.0,1.0,1.0,1.0,21.80
2023-01-11 22:36:07.352,0.32621184,-0.23654808,0.44283384,0.43810737,0.120121755,-0.29647183,-0.060257543,0.22769816,0.70411193,-0.085958675,0.15147409,0.68286085,0.36063647,-0.20464371,-0.13434383,0.4030637,0.013859077,-0.39642063,-0.08237492,0.233022,853.00366,850.58606,833.2601,853.4066,786.9231,-0.752685546875,-0.00421142578125,0.6527099609375,-2.572021484375,2.213134765625,1.413116455078125,1,1.0,1.0,1.0,1.0,21.80
2023-01-11 22:36:08.363,-0.020443436,-0.20726985,0.549622,-0.32993737,0.29666257,-0.38882414,-0.030785013,0.19423263,0.56884867,-0.03459367,0.11691853,0.68499434,0.33224303,0.17082028,-0.2412232,0.5161097,-0.022324609,0.08836961,-0.31922308,0.17696802,852.6007,846.55676,840.10986,849.3773,786.9231,-0.73370361328125,-0.00994873046875,0.65338134765625,-3.06549072265625,2.429962158203125,0.291595458984375,1,1.0,1.0,1.0,1.0,21.80
2023-01-11 22:36:09.378,0.36785924,-0.3712741,0.5323927,0.041013487,0.2603641,-0.2671573,-0.07629445,0.024589093,0.4723085,0.0062752883,0.27262202,0.51961875,0.53765374,-0.05064872,-0.22053775,0.36857566,0.3191027,-0.0051451707,-0.5110412,0.13307387,853.00366,853.00366,836.8865,865.4945,838.9011,-0.75067138671875,-0.01708984375,0.6412353515625,-2.52716064453125,2.04864501953125,1.188812255859375,1,1.0,1.0,1.0,1.0,21.80
2023-01-11 22:36:10.389,0.73312837,-0.109149106,0.8676772,0.077248454,-0.1424787,-0.18907452,0.08527664,-0.27897993,0.9205444,-0.32887492,0.08060481,0.45446187,0.73875815,-0.21316509,-0.1649084,0.5348719,0.7068417,-0.36243322,-0.573524,0.3159079,837.6923,855.42126,847.3626,850.58606,770.80585,-0.75213623046875,-0.021484375,0.65283203125,-2.4822998046875,2.579498291015625,1.607513427734375,1,1.0,1.0,1.0,1.0,21.80
2023-01-11 22:36:11.410,0.93653023,0.29881608,0.60951424,0.27987966,-0.17850955,-0.21092075,0.045975156,0.063323505,0.87797874,-0.17853007,-0.02267906,0.62812895,0.780921,-0.21358812,-0.31064546,0.62407887,0.7839045,-0.55807066,-0.373663,0.3073726,834.4689,850.18317,832.8571,866.30035,843.3333,-0.74853515625,-0.0133056640625,0.64019775390625,-2.310333251953125,2.026214599609375,1.323394775390625,1,1.0,1.0,1.0,1.0,21.80
2023-01-11 22:36:12.427,0.24965395,0.1819963,0.4588524,0.25514832,-0.15767622,-0.55448425,-0.09204902,0.07385881,0.73809934,-0.2372986,0.16784683,0.6334814,0.77957386,-0.38205865,-0.37107453,0.69692254,0.7446377,-0.48510954,-0.5728965,0.358747,809.0842,840.9158,844.94507,820.3663,884.83514,-0.7572021484375,-0.00909423828125,0.6495361328125,-2.332763671875,2.73651123046875,0.88226318359375,1,1.0,1.0,1.0,1.0,21.80
2023-01-11 22:36:13.440,0.780147,-0.15163085,0.28278685,0.3913915,0.420204,-0.4342237,0.2398224,0.2702413,0.76141953,-0.10768391,0.18944025,0.62086236,0.82761157,-0.24137454,-0.26989722,0.80102235,0.42910835,-0.53435236,-0.65925974,0.29286608,854.21246,853.4066,835.2747,844.94507,838.0952,-0.7523193359375,-0.00445556640625,0.64385986328125,-2.355194091796875,2.91595458984375,1.861724853515625,1,1.0,1.0,1.0,1.0,21.80
2023-01-11 22:36:14.459,0.79293853,-0.17897823,0.28892243,0.4890087,0.36786067,-0.5824119,0.04212921,0.16843608,0.8494391,-0.18773529,0.24586275,0.73392737,0.88738286,-0.17949364,-0.18733394,0.7472364,0.55453455,-0.6263324,-0.7427868,0.280766,827.619,850.18317,846.9597,845.34796,845.34796,-0.7628173828125,-0.01220703125,0.63818359375,-1.7645263671875,2.729034423828125,1.487884521484375,1,1.0,1.0,1.0,1.0,21.80
2023-01-11 22:36:15.482,0.5301484,-0.13934554,0.5977646,0.38571614,0.13191278,-0.7213819,0.21924594,0.035490803,0.6592315,-0.28206927,0.31478912,0.304404,0.64011544,-0.19617431,-0.24099858,0.5330636,0.63346004,-0.4090949,-0.6941705,0.34766227,840.9158,847.76556,823.1868,840.9158,874.7619,-0.7548828125,-0.01324462890625,0.64019775390625,-2.624359130859375,2.235565185546875,2.310333251953125,1,1.0,1.0,1.0,1.0,21.80
2023-01-11 22:36:16.492,0.5603768,-0.10764113,0.5509701,0.38750607,0.5070762,-0.092788324,0.37149057,0.5537884,1.3010716,0.4737564,0.37654328,1.0889102,0.92131984,-0.14974862,-0.22634664,0.66502005,0.73773557,-0.2301573,-0.60326976,0.5200928,854.61536,853.00366,845.7509,834.87177,858.24176,-0.7523193359375,-0.010498046875,0.643798828125,-2.115936279296875,2.16827392578125,0.740203857421875,1,1.0,1.0,1.0,1.0,21.44
2023-01-11 22:36:17.503,0.59280473,-0.35930222,0.29891008,0.23073274,0.68517214,0.07632477,0.13637994,0.6156909,1.3136709,0.48054126,0.39119926,1.2489865,0.92395467,-0.27771604,-0.19544216,0.9692591,0.6195235,-0.2386829,-0.5909138,0.6892747,839.707,848.5714,838.0952,838.9011,843.3333,-0.74957275390625,9.1552734375E-4,0.64862060546875,-2.265472412109375,2.714080810546875,1.398162841796875,1,1.0,1.0,1.0,1.0,21.44
2023-01-11 22:36:18.522,0.44621587,-0.23876095,0.33413994,-0.02289795,0.42553535,-0.10661651,0.19835715,0.42415088,1.0242019,0.21674068,0.25586653,1.2168099,0.95716393,-0.34977385,-0.24057691,0.9949103,0.7676984,-0.37637398,-0.7044341,0.55851644,852.1978,848.1685,844.1392,856.63007,877.5824,-0.74456787109375,-0.00341796875,0.64990234375,-2.82623291015625,2.27294921875,0.710296630859375,1,1.0,1.0,1.0,1.0,21.44
2023-01-11 22:36:19.540,0.46663812,-0.27530357,0.15173103,0.119307175,0.5685283,-0.111884885,-0.07814285,0.31524676,1.3396611,0.07683264,0.16942738,1.2491486,0.86314386,-0.26737702,-0.3112847,0.84269583,0.7965269,-0.3799804,-0.8793807,0.34841233,834.87177,844.1392,1156.4103,864.68866,906.1905,-0.76690673828125,-0.0050048828125,0.6390380859375,-2.669219970703125,2.01873779296875,1.48040771484375,1,1.0,1.0,1.0,1.0,21.44
2023-01-11 22:36:20.555,1.3353465,0.3624545,0.27917415,0.97568285,0.95122075,-0.19610299,-0.111374065,0.61801374,1.4544821,0.23639058,-0.014875866,0.7520631,0.8114782,-0.3383813,-0.25677195,0.8121991,0.6675816,-0.454396,-0.6850813,0.48306116,844.5421,848.1685,925.5311,838.49817,893.2967,-0.75274658203125,0.00323486328125,0.64697265625,-2.34771728515625,2.04864501953125,1.502838134765625,1,1.0,1.0,1.0,1.0,21.44
2023-01-11 22:36:21.581,0.62381744,0.17299463,0.27917415,0.5750465,0.5184999,-0.2421485,-0.111374065,0.34494984,1.1284133,0.19433056,-0.014875866,0.8001041,0.6155365,-0.23295823,-0.25677195,0.93699896,0.42415532,-0.56716394,-0.6850813,1.0783911,861.8681,847.3626,886.04395,856.63007,865.09155,-0.74755859375,-0.004150390625,0.64666748046875,-2.70660400390625,2.16827392578125,1.06170654296875,1,1.0,1.0,1.0,1.0,21.44
2023-01-11 22:36:22.595,0.9539028,0.46966502,0.27917415,0.24449453,0.78058547,0.12901814,-0.111374065,0.13625067,1.0929303,0.35541323,-0.014875866,0.55646056,0.43010256,-0.17053032,-0.25677195,0.85322165,0.25733826,-0.38249937,-0.6850813,0.8926162,864.68866,849.7802,758.71796,881.2088,860.2564,-0.7578125,-0.0062255859375,0.63836669921875,-2.6617431640625,2.52716064453125,1.51031494140625,1,1.0,1.0,1.0,1.0,21.44
2023-01-11 22:36:23.617,1.1980519,0.5773761,0.27917415,0.47249684,0.8791012,0.19702658,-0.111374065,0.31784743,0.9998264,0.37201807,-0.014875866,0.27056995,0.4229243,-0.13599138,-0.25677195,0.93994695,0.2036206,-0.21223436,-0.6850813,0.7989422,869.12085,845.7509,784.90845,857.03296,763.1502,-0.7437744140625,-0.01666259765625,0.6541748046875,-1.51031494140625,2.983245849609375,0.814971923828125,1,1.0,1.0,1.0,1.0,21.44
2023-01-11 22:36:24.639,0.9031478,0.42143863,0.96343195,0.28960133,0.618234,-0.11066384,-0.021570869,0.21939315,0.6691477,0.12809461,0.30823362,0.5212367,0.37691525,-0.44436267,0.0029742504,0.82936287,0.021566607,-0.5885153,-0.115833424,0.64729786,868.315,848.97437,817.5458,865.89746,716.4103,-0.757080078125,-0.00982666015625,0.64520263671875,-2.654266357421875,2.011260986328125,1.79443359375,1,1.0,1.0,1.0,1.0,21.44
2023-01-11 22:36:25.670,0.74217516,0.3390497,0.77612615,0.14956652,0.2373149,-0.059427787,-0.028442493,-0.02669491,0.57431877,0.061726905,0.17595415,0.5444671,0.1865588,-0.46529272,-0.12888305,0.5258612,-0.20968403,-0.68354934,-0.20949031,0.35936877,843.3333,846.9597,828.022,840.5128,770.40295,-0.74334716796875,0.00714111328125,0.649169921875,-2.190704345703125,2.22808837890625,1.637420654296875,1,1.0,1.0,1.0,1.0,21.44
2023-01-11 22:36:26.701,0.21446548,-0.1410808,0.56073844,-0.08290986,0.1836357,-0.16766948,0.504802,-0.18610457,0.46741408,0.09156225,0.3839452,0.32552662,0.12708475,-0.41768998,0.041426983,0.4014958,-0.16410655,-0.80782586,-0.11634572,0.29595464,858.24176,857.8388,828.4249,857.8388,758.71796,-0.745361328125,0.00146484375,0.663818359375,-1.981353759765625,1.353302001953125,3.132781982421875,1,1.0,1.0,1.0,1.0,21.20
2023-01-11 22:36:27.724,0.8277485,0.12059311,0.31949437,0.20352845,0.24111716,-0.020636082,0.47371796,0.35329342,0.79911214,0.42228124,0.5508483,1.2480369,0.381368,-0.33807763,0.20738287,0.5626857,0.026975218,-0.56166875,0.10169377,0.5195962,850.989,855.42126,816.7399,849.3773,719.6337,-0.74176025390625,-0.00115966796875,0.65191650390625,-2.265472412109375,2.930908203125,3.865509033203125,1,1.0,1.0,1.0,1.0,21.20
2023-01-11 22:36:28.727,0.7695277,0.41901436,0.5831669,0.25889933,0.33415395,-0.027024036,0.14433834,0.42321903,1.2286301,0.49199915,0.6063115,1.2480369,0.6465466,-0.19401696,0.207564,0.72915417,0.40662035,-0.42118794,0.109420165,0.8128516,853.8095,856.2271,848.5714,852.6007,751.8681,-0.73785400390625,-0.01202392578125,0.65936279296875,-2.056121826171875,2.983245849609375,0.680389404296875,1,1.0,1.0,1.0,1.0,21.20
2023-01-11 22:36:29.758,0.46330103,0.44465744,0.7901104,0.47458223,0.19652347,-0.178828,0.14396392,0.25545946,0.7311918,-0.023457773,0.3416798,0.7385466,0.33726257,-0.24581005,0.1606384,0.53442377,0.26585105,-0.3470572,-0.02014298,0.79892206,855.82416,847.3626,840.9158,843.3333,807.8755,-0.729736328125,-0.00347900390625,0.66534423828125,-2.34771728515625,2.729034423828125,1.80938720703125,1,1.0,1.0,1.0,1.0,21.20
2023-01-11 22:36:30.771,0.88821995,0.54187065,0.46274626,0.84891814,0.5753476,-0.040370103,0.054739278,0.55884945,0.5207563,-0.27338248,0.3190656,0.66930753,0.38203648,-0.24770465,-0.15418847,0.53010076,-0.02422125,-0.33302408,-0.41350082,0.37974265,846.1539,847.3626,845.7509,861.06226,774.83514,-0.751220703125,0.01312255859375,0.6514892578125,-2.452392578125,2.01873779296875,2.071075439453125,1,1.0,1.0,1.0,1.0,21.20
2023-01-11 22:36:31.802,0.6033342,-0.14670117,0.122020215,0.57504386,0.04982474,-0.4676339,-0.08743438,0.19047438,0.7174272,-0.12359678,0.17451546,0.89795995,0.64807516,-0.2720483,-0.25457546,0.6093189,0.33834702,-0.47510692,-0.73327553,0.24505989,852.1978,857.03296,844.94507,862.674,810.293,-0.7593994140625,0.0050048828125,0.654296875,-2.340240478515625,2.280426025390625,1.308441162109375,1,1.0,1.0,1.0,1.0,21.20
2023-01-11 22:36:32.823,0.8494033,-0.3656668,0.28206342,0.8114718,0.44244573,-0.6098689,-0.10719854,0.21315217,0.7981664,-0.09837234,0.08569997,0.8910187,0.8588225,-0.22324885,-0.29779813,0.73899174,0.85470784,-0.5379334,-0.8500583,0.5166186,863.0769,849.7802,831.6484,857.4359,811.0989,-0.7392578125,-0.0029296875,0.65545654296875,-2.52716064453125,2.87109375,1.772003173828125,1,1.0,1.0,1.0,1.0,21.20
2023-01-11 22:36:33.841,0.22724777,-0.17608427,0.8226283,0.19852847,0.34930727,-0.4698323,0.3982239,-0.0033944217,0.9685403,-0.4081823,0.077821754,0.91805285,1.0232675,-0.25152987,-0.20177433,0.8346336,1.2478184,-0.5905738,-0.83198076,0.7759985,877.5824,857.8388,842.1245,879.19415,793.7729,-0.748046875,0.0048828125,0.64776611328125,-2.16827392578125,1.966400146484375,1.757049560546875,1,1.0,1.0,1.0,1.0,21.20
2023-01-11 22:36:34.871,0.26375672,0.08502504,0.83636916,0.35366267,0.16622353,-0.30640236,0.4001614,0.051733643,0.94359434,-0.16396682,0.3260757,0.670624,0.95792484,-0.35701203,-0.3364952,0.7226004,1.1026456,-0.6639279,-0.7498551,0.7388903,858.24176,852.6007,849.7802,844.1392,763.5531,-0.7532958984375,0.00323486328125,0.64483642578125,-2.1832275390625,1.734619140625,1.502838134765625,1,1.0,1.0,1.0,1.0,21.20
2023-01-11 22:36:35.891,0.24151438,-0.23313527,0.31612042,0.027715288,-0.012242237,-0.42972913,0.1861937,-0.016555304,0.7687753,-0.09809517,0.33527237,0.68490756,0.9394082,-0.26913843,-0.23123999,0.7190335,0.93036276,-0.5937461,-0.85843056,0.76644176,859.0476,853.4066,849.3773,863.0769,792.1612,-0.74688720703125,0.00335693359375,0.6458740234375,-2.91595458984375,3.0206298828125,0.635528564453125,1,1.0,1.0,1.0,1.0,20.86
2023-01-11 22:36:36.904,0.31072244,-0.40261182,0.24610041,0.08035657,0.26973101,-0.43082106,0.21420829,-0.003244361,0.69311327,-0.13909565,0.15437707,0.6991236,0.79034907,-0.25696015,-0.33286896,0.64613515,0.897793,-0.4551039,-0.8155249,0.63013864,832.0513,849.3773,834.4689,841.31866,729.304,-0.758544921875,-0.002197265625,0.64654541015625,-2.392578125,1.682281494140625,1.42059326171875,1,1.0,1.0,1.0,1.0,20.86
2023-01-11 22:36:37.918,0.43275452,-0.19853222,0.2896051,0.18997578,0.40667135,-0.36032864,-0.07054005,-0.04042033,0.5232017,-0.20330681,0.09076177,0.37177232,0.9463833,-0.19946735,-0.36197394,0.8258519,0.8365687,-0.38840836,-0.7327945,0.59269595,847.76556,858.24176,846.1539,839.707,766.3736,-0.75311279296875,1.220703125E-4,0.650390625,-2.0037841796875,1.786956787109375,0.874786376953125,1,1.0,1.0,1.0,1.0,20.86
2023-01-11 22:36:38.946,0.40569684,-0.14616355,0.2576402,0.014368572,0.33341256,-0.57859325,-0.09374235,-0.08365831,0.92278284,0.013916105,0.3560524,0.48993957,0.9696866,-0.1499798,-0.12522373,0.72550774,0.93538153,-0.46612787,-0.7549796,0.63918495,844.1392,850.58606,846.1539,852.1978,730.9158,-0.7537841796875,-0.0089111328125,0.64434814453125,-2.684173583984375,2.340240478515625,0.2691650390625,1,1.0,1.0,1.0,1.0,20.86
2023-01-11 22:36:39.952,0.4523547,-0.20737493,0.20676678,0.33469132,0.2438169,-0.47917312,-0.15919596,-0.15466703,0.9593945,0.05916686,0.37744254,0.48506492,1.0893524,-0.25475144,-0.08743648,0.56198686,0.832048,-0.45783707,-0.85491574,0.44693568,850.18317,855.82416,838.49817,830.4396,677.72894,-0.759033203125,-0.00128173828125,0.64068603515625,-2.22808837890625,1.996307373046875,1.772003173828125,1,1.0,1.0,1.0,1.0,20.86
2023-01-11 22:36:40.965,0.34012234,-0.51087475,0.12954114,0.28069407,0.18317872,-0.45258412,-0.037293017,-0.05441385,0.9496708,-0.1150731,0.020504052,0.6681635,0.9992866,-0.20230849,-0.19744243,0.79415417,0.9835357,-0.51129395,-0.8991517,0.5297408,835.6777,856.63007,837.6923,831.2454,731.31866,-0.74700927734375,0.0010986328125,0.64892578125,-2.691650390625,2.355194091796875,1.27105712890625,1,1.0,1.0,1.0,1.0,20.86
2023-01-11 22:36:41.978,0.18103878,-0.32131302,0.32127535,0.21742538,0.5819361,-0.114487305,0.22664829,-0.1824193,1.1917379,0.22461432,0.26136827,0.55109143,0.8947997,-0.19725572,-0.21080272,0.760797,0.93649006,-0.5334282,-0.60966307,0.66868585,851.39197,849.7802,847.3626,851.79486,733.73627,-0.755859375,0.00140380859375,0.645751953125,-2.01873779296875,2.489776611328125,1.128997802734375,1,1.0,1.0,1.0,1.0,20.86
2023-01-11 22:36:43.008,0.37321088,-0.30690658,0.06251754,0.03162678,0.37960112,-0.24207588,0.24597545,-0.08908011,1.0115874,0.22621152,0.4335532,0.44248408,0.68293107,-0.09631208,0.26717892,0.9195431,0.5743554,-0.44053486,0.1818134,0.9771649,833.2601,846.9597,836.8865,836.4835,743.8095,-0.748291015625,0.00238037109375,0.65277099609375,-2.953338623046875,2.31781005859375,1.06170654296875,1,1.0,1.0,1.0,1.0,20.86
2023-01-11 22:36:44.038,0.8167197,-0.40816447,0.40917698,0.6253006,0.6734836,0.044187527,0.15125965,0.7214379,1.5119492,0.75219274,0.59902483,1.3323885,0.79988116,0.007412124,0.47550607,1.111791,0.70273286,-0.124733165,0.3198309,1.1106178,859.85345,844.5421,850.58606,856.2271,786.1172,-0.75225830078125,-9.765625E-4,0.63934326171875,-2.265472412109375,2.1234130859375,0.88226318359375,1,1.0,1.0,1.0,1.0,20.86
2023-01-11 22:36:45.064,1.2763842,-0.05626498,0.1471459,0.57298464,0.97546136,0.14306107,0.19925943,0.7412909,1.5377612,0.7740396,0.54683846,1.2665064,0.532953,-0.17360832,0.1895439,1.0973505,0.60519284,-0.3689456,0.1186503,1.0995219,851.79486,844.94507,854.21246,877.1795,805.05493,-0.75860595703125,0.00201416015625,0.64764404296875,-3.312225341796875,2.400054931640625,1.06170654296875,1,1.0,1.0,1.0,1.0,20.86
2023-01-11 22:36:46.082,0.9288398,-0.2869127,0.1932784,0.8381674,0.8934829,-0.0045797504,0.25895318,0.7610562,1.5717503,0.10245448,0.31559885,1.3424807,0.95784074,-0.2082328,-0.20858264,0.9725486,1.1952596,0.077259436,-0.29759914,1.021875,857.03296,854.21246,850.58606,850.18317,816.7399,-0.75299072265625,0.01171875,0.6446533203125,-2.46734619140625,2.7215576171875,1.278533935546875,1,1.0,1.0,1.0,1.0,20.64
2023-01-11 22:36:47.099,0.9108222,-0.16074917,0.044696797,0.7192454,0.9449812,-0.07504621,0.26374954,0.7700607,1.590747,0.17871512,0.28865567,1.3967292,0.75200564,-0.17440079,-0.24929161,0.75439495,1.0194607,0.033508874,-0.3111397,0.8375808,858.24176,851.79486,848.97437,861.8681,822.381,-0.75860595703125,4.8828125E-4,0.6419677734375,-2.34771728515625,2.280426025390625,1.009368896484375,1,1.0,1.0,1.0,1.0,20.64
2023-01-11 22:36:48.132,0.80935884,-0.08536124,-0.08171859,0.791638,1.0254351,-0.3099841,0.08511833,0.9942324,1.2993064,0.14071633,0.020184178,1.0951393,0.5466164,-0.17076072,-0.3046024,0.5993758,0.24519229,-0.6465424,-0.64418364,0.44779807,850.18317,859.0476,827.2161,857.8388,765.9707,-0.7567138671875,0.003662109375,0.64825439453125,-2.37762451171875,2.49725341796875,1.188812255859375,1,1.0,1.0,1.0,1.0,20.64
2023-01-11 22:36:49.139,0.32537946,-0.28137633,0.06296395,0.4671213,0.42281726,-0.47368923,-0.117145926,0.4323357,1.0300874,0.010561057,0.13619335,0.883624,0.5434989,-0.10848598,0.22316222,1.1117043,0.36280018,-0.2789698,0.25763905,1.2827512,870.7326,855.42126,857.03296,859.85345,815.5311,-0.744873046875,0.0015869140625,0.64971923828125,-2.6318359375,2.332763671875,0.934600830078125,1,1.0,1.0,1.0,1.0,20.64
2023-01-11 22:36:50.162,0.58559906,-0.23080802,0.11526736,0.5437391,0.5342668,-0.469737,-0.25236017,0.54077935,1.0507193,0.098189645,0.16736183,0.87963766,0.6724431,-0.07912069,0.55331725,1.0710529,0.53991693,-0.16392733,0.5198389,1.3425597,857.4359,848.97437,867.9121,841.31866,785.7143,-0.7567138671875,0.00152587890625,0.6478271484375,-2.37762451171875,2.3626708984375,1.03179931640625,1,1.0,1.0,1.0,1.0,20.64
2023-01-11 22:36:51.166,0.54290307,-0.33878025,-0.212262,0.42727152,0.1341448,-0.6462428,-0.024957556,-0.09471296,0.53058404,-0.21303369,-0.05197822,0.33885908,0.64756787,-0.20836428,0.41891026,0.9917555,0.6112296,-0.2692719,0.30743203,0.8977393,877.98535,853.8095,866.7033,881.2088,828.8278,-0.75018310546875,0.0045166015625,0.65423583984375,-2.28790283203125,2.52716064453125,1.039276123046875,1,1.0,1.0,1.0,1.0,20.64
2023-01-11 22:36:52.188,0.399267,-0.47797245,0.22119057,0.19372383,0.2723831,-0.5375608,0.020552456,0.067142196,0.823095,-0.15234563,-0.07979507,0.65215486,0.40985483,-0.14633594,0.19397542,0.99038357,0.22378723,-0.30929905,0.07628097,0.84669876,871.13556,847.76556,861.4652,895.31134,831.6484,-0.7542724609375,-0.00115966796875,0.64404296875,-2.61688232421875,2.160797119140625,1.1663818359375,1,1.0,1.0,1.0,1.0,20.64
2023-01-11 22:36:53.207,0.1576553,-0.40807512,0.42750013,0.0045085964,0.40657142,-0.43397447,0.19945504,0.35668102,0.94067895,-0.2449217,-0.029681552,0.7469114,0.09603641,-0.21736045,0.121907234,0.71164566,0.040601842,-0.44701037,0.0690193,0.8127452,855.0183,849.7802,861.4652,881.2088,818.7546,-0.74835205078125,0.0076904296875,0.65155029296875,-2.61688232421875,2.691650390625,1.308441162109375,1,1.0,1.0,1.0,1.0,20.64
2023-01-11 22:36:54.214,0.43993735,-0.36234033,0.39590055,0.3706342,0.038237445,-0.54107845,0.3154425,0.17527266,0.33499417,-0.27229545,0.06145864,0.30570355,-0.097475454,-0.30605283,0.13725948,0.47074085,-0.00166461,-0.43040168,-0.020709816,0.62883514,849.7802,850.989,851.39197,856.2271,785.31134,-0.7479248046875,0.0025634765625,0.6456298828125,-2.43743896484375,2.459869384765625,1.099090576171875,1,1.0,1.0,1.0,1.0,20.64
2023-01-11 22:36:55.225,0.6397748,-0.41140476,-0.025749648,0.4055955,0.49543554,-0.21518965,0.054040473,0.51662487,0.3539327,-0.07386534,0.47326177,0.6781477,0.10613922,-0.34624144,0.013618496,0.4921401,-0.0071575665,-0.5385622,0.0506936,0.76027644,840.9158,849.7802,826.4103,853.00366,779.67035,-0.75408935546875,0.00689697265625,0.65228271484375,-2.654266357421875,2.10845947265625,1.09161376953125,1,1.0,1.0,1.0,1.0,20.64
2023-01-11 22:36:55.762,,,,,,,,,,,,,,,,,,,,,,,,,,,,,,,,,,,,,,/muse/elements/blink
2023-01-11 22:36:56.240,0.16364764,-0.32710016,0.13444905,0.1706411,0.07662294,-0.27544656,0.026475718,0.3522015,-0.03966678,-0.14997181,0.48178798,0.685848,0.17561975,-0.3320287,0.045775488,0.62108016,0.05525066,-0.5209728,-0.04446017,0.6595104,830.4396,848.5714,838.49817,846.55676,790.54944,-0.7427978515625,0.00909423828125,0.653564453125,-2.46734619140625,2.25799560546875,0.725250244140625,1,1.0,1.0,1.0,1.0,20.31
2023-01-11 22:36:57.255,0.5270468,0.020057768,0.307239,0.027045019,0.09196358,-0.33424488,0.07248814,0.049289335,0.24322535,-0.11514742,0.23948827,0.14599147,0.45595795,-0.3783161,0.066094846,0.70296204,0.024270449,-0.6535803,-0.11351693,0.80649745,838.49817,855.0183,846.55676,861.8681,809.89014,-0.7515869140625,0.01202392578125,0.65594482421875,-2.459869384765625,2.429962158203125,1.4056396484375,1,1.0,1.0,1.0,1.0,20.31
2023-01-11 22:36:58.266,0.6949482,-0.22359623,0.0031985345,0.5567602,0.19516385,-0.18968736,0.17632061,0.13956507,0.42486295,-0.2064138,0.23136027,0.3275869,0.3366713,-0.3249716,0.034258727,0.5534613,0.1284255,-0.5635085,-0.15103796,0.5627461,837.28937,858.6447,833.2601,834.4689,786.9231,-0.73809814453125,0.01141357421875,0.6571044921875,-2.70660400390625,2.205657958984375,0.478515625,1,1.0,1.0,1.0,1.0,20.31
2023-01-11 22:36:59.287,0.65865564,-0.21565424,0.21841976,0.4424835,0.36562672,-0.18798226,0.04875273,0.0673953,0.44734845,-0.023438144,0.10622997,0.5881938,0.42484438,-0.31415942,-0.23456903,0.39160508,0.23503391,-0.5809653,-0.6004382,0.34137422,844.1392,852.6007,846.9597,848.5714,770.0,-0.75921630859375,0.01373291015625,0.65069580078125,-2.160797119140625,2.998199462890625,1.7645263671875,1,1.0,1.0,1.0,1.0,20.31
2023-01-11 22:37:00.302,0.14822379,-0.19095512,0.094345845,-0.2486457,0.23952119,-0.2753545,0.048716918,0.01360543,0.5259111,-0.0600209,-0.06282381,0.4820105,0.30344227,-0.30391595,-0.23099984,0.45284626,-0.037750904,-0.6668207,-0.73497957,0.24824558,850.58606,842.9304,821.978,835.2747,778.0586,-0.73858642578125,0.01239013671875,0.65814208984375,-2.833709716796875,2.13836669921875,0.889739990234375,1,1.0,1.0,1.0,1.0,20.31
2023-01-11 22:37:01.319,0.9951845,0.06020509,0.17790887,0.80229765,0.6295097,-0.12824841,0.33992207,0.6624424,0.8753866,-0.29116878,0.061579254,0.45068532,0.8216288,-0.42963573,-0.19683476,0.68243873,0.39530757,-0.59201205,-0.9022591,0.25275472,863.0769,851.39197,840.9158,848.97437,807.8755,-0.755615234375,0.00872802734375,0.64569091796875,-2.58697509765625,2.011260986328125,0.4486083984375,1,1.0,1.0,1.0,1.0,20.31
2023-01-11 22:37:02.349,1.0059831,0.09505341,0.1274086,0.76375663,0.52458763,-0.25788713,0.2619036,0.6010049,0.89974564,-0.26551545,0.06045441,0.5776319,0.8793855,-0.37005657,-0.1920188,0.7097014,0.70586413,-0.56097716,-0.76554704,0.5373559,855.82416,845.7509,827.619,837.6923,790.9524,-0.7529296875,0.0152587890625,0.6522216796875,-2.355194091796875,2.37762451171875,1.136474609375,1,1.0,1.0,1.0,1.0,20.31
2023-01-11 22:37:03.368,0.30426377,-0.3090458,-0.017131256,-0.11124185,-0.09316535,-0.7237875,0.072152816,0.025133383,0.4921499,-0.2965458,-0.11285502,0.46233314,0.6516641,-0.3152564,-0.37159508,0.40144083,0.4647903,-0.5844328,-0.8869062,0.2717324,847.3626,856.2271,854.21246,842.9304,833.2601,-0.75262451171875,6.103515625E-5,0.655029296875,-2.489776611328125,2.452392578125,0.680389404296875,1,1.0,1.0,1.0,1.0,20.31
2023-01-11 22:37:04.378,0.98318076,-0.014342856,0.053111102,0.7213821,0.714148,-0.12767649,0.06889981,0.527886,1.1042902,0.039987598,-0.022364786,1.0207294,0.8719132,-0.31529626,-0.30817086,0.6646455,0.33809972,-0.5571748,-0.7269472,0.19629149,883.6264,856.2271,872.3443,892.0879,833.2601,-0.74969482421875,0.00830078125,0.655517578125,-2.669219970703125,1.83929443359375,0.04486083984375,1,1.0,1.0,1.0,1.0,20.31
2023-01-11 22:37:05.396,0.81245565,0.07014336,0.15866189,0.70648926,0.6849567,-0.17154974,0.24177232,0.53229374,0.9415553,0.0141367735,0.014237871,0.96902883,0.7204407,-0.29537913,-0.2711399,0.6672291,0.49349856,-0.72418326,-0.57776886,0.21270029,873.1502,855.82416,872.3443,865.89746,876.3736,-0.7388916015625,0.02056884765625,0.6583251953125,-2.370147705078125,2.908477783203125,0.9869384765625,1,1.0,1.0,1.0,1.0,20.31
2023-01-11 22:37:06.413,0.6535582,0.020572256,0.23520447,0.5019133,0.46531954,-0.29762077,0.12753312,0.42964736,0.8463605,-0.101980925,0.10970618,0.8540563,0.4785832,-0.30915064,-0.11985264,0.58077335,0.37620693,-0.6532563,-0.5909604,0.24400483,859.45056,852.6007,865.09155,863.47986,804.65204,-0.7540283203125,0.0111083984375,0.64923095703125,-2.235565185546875,1.68975830078125,1.128997802734375,1,1.0,1.0,1.0,1.0,20.09
2023-01-11 22:37:07.424,0.5418445,-0.1155955,0.20958647,0.6698093,0.08010141,-0.43463778,-0.30602503,0.2831236,0.70017034,-0.06973274,-0.05340562,0.87311757,0.4422689,-0.26114133,-0.14651664,0.5077624,0.5821131,-0.5667641,-0.68070227,0.19372982,855.0183,856.2271,859.0476,860.65936,838.0952,-0.74200439453125,0.0191650390625,0.65814208984375,-2.52716064453125,2.10845947265625,1.435546875,1,1.0,1.0,1.0,1.0,20.09
2023-01-11 22:37:08.454,1.0749364,-0.113567896,0.035408486,1.0494729,0.85640925,-0.38018617,-0.0740508,0.6974191,1.1010114,-0.15541242,0.20174897,0.9518512,0.6910166,-0.41113168,-0.30971935,0.50612843,0.45609468,-0.55263954,-0.61015064,0.25796604,871.9414,850.58606,865.4945,872.3443,845.34796,-0.75177001953125,0.0106201171875,0.6505126953125,-2.504730224609375,2.392578125,1.375732421875,1,1.0,1.0,1.0,1.0,20.09
2023-01-11 22:37:09.466,0.5311119,-0.23953682,0.5508372,0.21603732,0.30725703,-0.5415212,-0.0232811,-0.107257254,0.46186665,-0.17575833,0.17191514,0.36926123,0.5557353,-0.07215196,0.33819824,0.59595895,0.67796856,-0.15436488,0.40849513,0.37277973,851.39197,848.97437,859.85345,865.4945,845.34796,-0.73828125,0.001708984375,0.6561279296875,-3.132781982421875,2.0635986328125,1.577606201171875,1,1.0,1.0,1.0,1.0,20.09
2023-01-11 22:37:10.482,0.75620425,-0.011587478,0.34927794,0.26939654,0.5728171,-0.18147619,0.060768034,-0.1682586,0.634395,-0.19531667,0.39337686,0.2617126,0.81967354,0.12174951,0.7474627,0.6009236,0.88378036,0.031443827,0.798928,0.50380474,836.4835,848.97437,864.68866,828.022,838.9011,-0.73345947265625,0.0113525390625,0.6602783203125,-3.252410888671875,3.24493408203125,0.934600830078125,1,1.0,1.0,1.0,1.0,20.09
2023-01-11 22:37:11.506,0.48853976,-0.012248028,-0.07157691,0.26939654,0.18002078,0.0060764155,0.16220687,-0.1682586,1.0143675,0.013249358,0.4133581,0.2617126,0.8458713,-0.14243796,0.62429625,0.6009236,0.75881904,-0.10351543,0.5774477,0.50380474,843.3333,849.3773,855.42126,833.663,807.47253,-0.75286865234375,0.0084228515625,0.64581298828125,-2.58697509765625,1.652374267578125,1.188812255859375,1,1.0,1.0,1.0,1.0,20.09
2023-01-11 22:37:12.527,0.8116441,0.013985383,0.19323978,0.5795904,0.45650664,-0.1681612,0.2875748,0.4980634,0.8953854,-0.072676085,0.32617727,0.5194545,0.7296243,-0.18820336,0.34797892,1.1373156,0.6106855,-0.40765533,0.12564865,1.3085192,832.0513,849.3773,854.61536,848.97437,823.5897,-0.7484130859375,0.00677490234375,0.65399169921875,-3.4991455078125,2.04864501953125,1.15142822265625,1,1.0,1.0,1.0,1.0,20.09
2023-01-11 22:37:13.556,0.69047385,-0.24147138,0.18008742,0.4028419,0.375517,-0.19185758,0.05837458,-0.03601471,0.65822256,0.1454683,0.3453491,0.36101246,0.79265916,-0.25166154,-0.06351941,0.66891485,0.3942918,-0.5012728,-0.53394127,0.28429958,840.5128,854.61536,828.4249,846.9597,815.12823,-0.74609375,-0.0067138671875,0.658447265625,-2.61688232421875,2.758941650390625,1.3458251953125,1,1.0,1.0,1.0,1.0,20.09
2023-01-11 22:37:14.589,0.69047385,-0.083898135,0.19555259,0.2975311,0.375517,-0.37956303,-0.10771441,-0.038620528,0.65822256,-0.09039216,0.32791775,0.19552004,0.79265916,-0.25311202,-0.36692134,0.4198502,0.3942918,-0.63598424,-0.5093513,0.20977637,852.1978,850.989,832.0513,846.9597,815.12823,-0.74969482421875,-0.00750732421875,0.649169921875,-1.772003173828125,3.06549072265625,1.6448974609375,1,1.0,1.0,1.0,1.0,20.09
2023-01-11 22:37:15.600,0.25813028,-0.3258581,0.04176491,0.027468033,0.020094553,-0.30963397,-0.15841414,-0.061739,0.37712747,-0.22191572,0.05872781,0.45285025,0.3785471,-0.32765493,-0.22290532,0.2691783,0.004640894,-0.6696559,-0.6296524,-0.02279377,878.7912,850.18317,845.7509,861.06226,879.59705,-0.74505615234375,-0.00372314453125,0.65936279296875,-2.370147705078125,2.415008544921875,1.786956787109375,1,1.0,1.0,1.0,1.0,20.09
2023-01-11 22:37:16.619,0.77454454,-0.15689303,0.08250949,0.6598182,0.4787495,-0.39272612,-0.24825844,0.3334561,0.52639425,-0.28138086,-0.09079919,0.64560187,0.21594757,-0.3520502,-0.16934644,0.34009597,-0.08120493,-0.7061029,-0.5744188,0.10634799,861.06226,848.1685,861.4652,867.1062,835.6777,-0.7545166015625,0.0018310546875,0.65618896484375,-1.562652587890625,2.400054931640625,2.28790283203125,1,1.0,1.0,1.0,1.0,19.78
2023-01-11 22:37:17.649,0.76128525,-0.2851094,-0.008504755,0.7534795,0.51023,-0.44384757,-0.23763752,0.3218121,0.47939584,-0.2057785,-0.037760254,0.081087336,0.21165667,-0.17871521,-0.24847527,0.38694495,-0.035388377,-0.6751001,-0.69654506,0.08184099,869.92676,859.45056,855.82416,871.13556,870.32965,-0.74285888671875,-0.00128173828125,0.6588134765625,-2.205657958984375,2.58697509765625,1.487884521484375,1,1.0,1.0,1.0,1.0,19.78
2023-01-11 22:37:18.235,,,,,,,,,,,,,,,,,,,,,,,,,,,,,,,,,,,,,,/muse/elements/blink
2023-01-11 22:37:18.670,1.0152493,-0.21325977,0.045005843,0.938464,0.5965262,-0.27094,-0.07754036,0.5642839,0.89963716,-0.21384019,0.055667825,0.98712635,0.2985087,-0.4138611,-0.10623487,0.43344155,-0.19315332,-0.90094715,-0.44931933,-0.26211187,868.71796,851.39197,857.8388,862.27106,861.06226,-0.71551513671875,-0.04315185546875,0.60748291015625,-7.454376220703125,7.185211181640625,-2.91595458984375,1,1.0,1.0,1.0,1.0,19.78
2023-01-11 22:37:19.687,1.3007417,-0.07323681,0.27127352,0.9564276,0.90111226,-0.3791389,-0.023069164,0.6421188,0.9346924,-0.51907307,0.15677644,0.99162877,0.49217248,-0.46065012,-0.037656415,0.6523116,0.20445107,-0.8077125,-0.3352253,0.40781945,833.2601,844.5421,839.707,849.7802,842.1245,-0.74737548828125,9.1552734375E-4,0.6473388671875,-2.699127197265625,2.03369140625,1.457977294921875,1,1.0,1.0,1.0,1.0,19.78
2023-01-11 22:37:20.700,1.0091966,-0.079809204,0.1644823,0.4968554,0.7197693,-0.37344003,0.025607303,0.5705618,0.9064864,-0.09633862,0.1634723,0.8626412,0.67230743,-0.25671965,0.5062061,0.9974573,0.6241341,-0.32369578,0.47775373,1.084769,815.12823,854.61536,814.3223,821.1722,803.44324,-0.7529296875,-0.0030517578125,0.65283203125,-2.43743896484375,2.31781005859375,1.099090576171875,1,1.0,1.0,1.0,1.0,19.78
2023-01-11 22:37:21.712,0.67576987,-0.10638714,0.14097232,0.45008084,0.72843885,-0.11025751,-0.118882984,0.54892534,1.1887434,0.18852803,0.5393152,1.0475714,0.5603961,-0.28860724,0.38822144,1.0353779,0.4736481,-0.5253891,0.43209237,1.0266039,844.1392,857.8388,830.84247,855.0183,811.50183,-0.73504638671875,-0.0037841796875,0.6610107421875,-3.0804443359375,2.1533203125,0.97198486328125,1,1.0,1.0,1.0,1.0,19.78
2023-01-11 22:37:22.733,0.65436345,-0.05322248,0.32129,0.38401997,0.8062163,-0.0015204264,-0.020669926,0.617555,1.1754913,0.17719011,0.5181412,0.97328365,0.5539651,-0.2732167,0.35178658,0.9490516,0.44087395,-0.33688596,0.2724883,0.9615101,836.08057,848.5714,813.1135,832.8571,803.44324,-0.75457763671875,-0.0059814453125,0.6484375,-2.5421142578125,2.03369140625,1.33087158203125,1,1.0,1.0,1.0,1.0,19.78
2023-01-11 22:37:23.762,0.8337303,-0.06379289,0.3687279,0.95112896,0.81980884,-0.30042803,0.113297835,0.9482062,0.9529097,0.1674552,0.05767125,0.72253835,0.5132157,-0.26419345,0.2730992,0.7334389,0.34441626,-0.4188852,0.2472187,0.9098787,850.58606,852.1978,826.4103,843.3333,791.75824,-0.73858642578125,-0.002685546875,0.65985107421875,-1.89910888671875,2.385101318359375,1.278533935546875,1,1.0,1.0,1.0,1.0,19.78
2023-01-11 22:37:24.484,,,,,,,,,,,,,,,,,,,,,,,,,,,,,,,,,,,,,,/muse/elements/blink
2023-01-11 22:37:24.785,0.94056505,-0.1024861,0.31900564,1.0571798,0.8392821,-0.27870122,0.19279407,0.8438359,1.0004098,0.05700595,0.022559414,0.83096874,0.45812353,-0.31393006,0.21749714,0.85994345,0.27574345,-0.48154223,0.28336364,0.86655575,837.28937,844.5421,811.50183,846.9597,761.13556,-0.7393798828125,-0.00537109375,0.65423583984375,-2.429962158203125,2.6318359375,1.158905029296875,1,1.0,1.0,1.0,1.0,19.78
2023-01-11 22:37:25.809,1.0831602,-0.3451455,0.5224602,1.1229917,0.71616405,-0.3697542,0.07526246,0.57891834,0.98143655,-0.07223329,0.098143935,0.74390763,0.42257693,-0.41920888,0.024655703,0.9993972,0.16010325,-0.66299856,-0.088160574,0.8228508,845.34796,849.7802,841.7216,845.34796,830.4396,-0.75482177734375,-0.0047607421875,0.654052734375,-2.10845947265625,2.73651123046875,1.15142822265625,1,1.0,1.0,1.0,1.0,19.56
2023-01-11 22:37:26.830,0.41393766,-0.3806453,0.26451078,0.34694952,0.13143189,-0.5770869,-0.23274916,-0.16101028,0.25244346,-4.889299E-4,0.15110946,0.24312444,0.08378794,-0.27161488,-0.028786782,0.45955512,0.02572595,-0.6405653,-0.010668702,0.58443564,875.56775,853.8095,861.06226,883.6264,895.7143,-0.74737548828125,-0.0025634765625,0.660400390625,-2.572021484375,2.355194091796875,1.24114990234375,1,1.0,1.0,1.0,1.0,19.56
2023-01-11 22:37:27.847,0.55010426,-0.49922034,0.19007522,0.29995438,-0.21255098,-0.5944519,-0.018374436,-0.30287474,0.218528,-0.03376973,0.12508877,0.19133064,0.12097394,-0.25500533,-0.03357525,0.28625667,0.10719792,-0.7602509,0.07425958,0.6300523,867.1062,850.989,860.2564,886.04395,880.80585,-0.74383544921875,-0.003662109375,0.64984130859375,-2.564544677734375,2.699127197265625,1.263580322265625,1,1.0,1.0,1.0,1.0,19.56
2023-01-11 22:37:28.876,0.7328003,-0.41308942,0.23565385,0.5512129,-0.14890471,-0.45065898,-0.10533704,-0.21326235,-0.003924607,-0.11648951,0.059113715,0.18671393,0.2898497,-0.32532462,0.21479951,0.32369894,0.23430717,-0.6904946,0.08716922,0.56830376,884.0293,858.24176,857.8388,880.40295,840.10986,-0.7396240234375,-0.006103515625,0.66265869140625,-3.162689208984375,1.652374267578125,0.59814453125,1,1.0,1.0,1.0,1.0,19.56
2023-01-11 22:37:29.905,0.7328003,0.47088835,0.17653993,0.5512129,-0.14890471,-0.16611622,-0.18867794,-0.21326235,-0.003924607,-0.27760732,-0.04642886,0.18671393,0.2898497,-0.32721516,0.2152106,0.32369894,0.23430717,-0.55485624,0.067947924,0.56830376,840.10986,859.45056,859.85345,849.7802,827.2161,-0.732421875,-0.0203857421875,0.66827392578125,-3.312225341796875,1.92901611328125,1.128997802734375,1,1.0,1.0,1.0,1.0,19.56
2023-01-11 22:37:30.946,0.25846007,0.6717043,0.32308775,0.2857063,0.049946986,-0.123932935,0.05369567,0.0948949,0.388808,-0.025123762,0.14083669,0.47542688,0.34694755,-0.2939953,0.2098896,0.8106068,-0.0015782585,-0.60892564,-0.10136031,0.69277203,790.9524,850.989,851.39197,792.96704,844.94507,-0.74774169921875,-0.011962890625,0.66070556640625,-2.026214599609375,1.966400146484375,1.861724853515625,1,1.0,1.0,1.0,1.0,19.56
2023-01-11 22:37:31.958,0.18850502,0.15164529,0.26253363,0.45073724,-0.10556543,-0.45355114,0.1551728,0.009694042,-0.02308483,-0.008205195,0.26070487,0.28215122,0.30543795,-0.37654796,0.11096635,0.56371397,-0.2020824,-0.7187471,-0.16169548,0.46084717,838.0952,852.1978,828.022,840.9158,778.0586,-0.75445556640625,0.0013427734375,0.64947509765625,-2.6617431640625,2.85614013671875,1.07666015625,1,1.0,1.0,1.0,1.0,19.56
2023-01-11 22:37:32.990,0.40071166,-0.35101628,0.14232504,0.3141933,0.03170599,-0.42621425,-0.072642714,-0.034049116,0.61325884,-0.12839763,0.2157616,0.14754745,0.21558662,-0.46718156,0.0010403665,0.73629737,0.05672404,-0.71919703,-0.1353745,0.4184414,861.8681,850.18317,830.84247,841.7216,819.15753,-0.73760986328125,-0.00146484375,0.6671142578125,-2.3028564453125,2.145843505859375,1.562652587890625,1,1.0,1.0,1.0,1.0,19.56
2023-01-11 22:37:34.019,0.41001463,-0.21292464,0.4252889,0.30839983,0.11707177,-0.386539,-0.22404696,0.037730925,0.41465396,-0.09306971,-0.035699204,0.2561982,0.08980452,-0.31036732,-0.1218977,0.5533765,-0.23825695,-0.6776446,-0.08640285,0.3812502,877.5824,852.1978,851.39197,859.85345,855.82416,-0.7431640625,-0.0057373046875,0.65179443359375,-2.594451904296875,2.639312744140625,1.084136962890625,1,1.0,1.0,1.0,1.0,19.56
2023-01-11 22:37:35.038,0.30410513,-0.1479883,0.25958744,0.023792824,-0.03914589,-0.6224215,-0.14887725,-0.04483801,0.5145787,-0.33115909,0.22500338,0.5550375,0.019502096,-0.5092932,-0.075100616,0.31367755,-0.28172404,-0.74813515,-0.14087878,0.30618298,873.1502,852.1978,852.1978,879.19415,843.73627,-0.75115966796875,-0.00115966796875,0.66064453125,-2.1832275390625,2.519683837890625,1.51031494140625,1,1.0,1.0,1.0,1.0,19.56
2023-01-11 22:37:36.073,0.69673526,-0.27556282,0.3142806,0.56640816,0.002949901,-0.6236908,0.07736499,0.23900916,0.79553956,-0.19807898,0.21594185,0.6355171,0.12642135,-0.42376754,0.049957953,0.26600122,-0.22846828,-0.7513783,-0.12354765,0.35456836,871.9414,852.1978,872.3443,863.8828,882.01465,-0.74432373046875,-0.0029296875,0.65667724609375,-2.37762451171875,2.041168212890625,1.413116455078125,1,1.0,1.0,1.0,1.0,19.28
2023-01-11 22:37:36.661,,,,,,,,,,,,,,,,,,,,,,,,,,,,,,,,,,,,,,/muse/elements/blink
2023-01-11 22:37:37.088,0.88437873,-0.050302014,0.31599605,0.6984418,0.1520826,-0.28080586,-0.089822285,0.16770041,0.57441545,-0.10785385,0.17365594,0.21800222,0.33825487,-0.4755029,-0.05105769,0.17193803,-0.012713342,-1.0610608,-0.24227221,0.14481871,834.87177,848.1685,840.5128,849.7802,797.8022,-0.7491455078125,-0.0062255859375,0.6484375,-2.6617431640625,2.40753173828125,1.158905029296875,1,1.0,1.0,1.0,1.0,19.28
2023-01-11 22:37:38.101,0.981718,-0.43299812,0.114364795,1.125007,0.121352814,-0.35742483,0.051568523,0.6319666,0.6067022,-0.3401765,0.18184073,0.43804908,0.35671207,-0.46777424,-0.1106978,0.8386986,0.021288626,-0.6947987,-0.32363817,0.27955326,835.2747,848.1685,841.31866,868.71796,832.4542,-0.736083984375,0.002685546875,0.66229248046875,-2.504730224609375,2.684173583984375,1.114044189453125,1,1.0,1.0,1.0,1.0,19.28
2023-01-11 22:37:39.122,0.8228345,-0.627552,0.092117354,0.81195086,0.17826524,-0.51832134,0.059878133,0.4122798,0.63094383,-0.1536996,0.10221669,0.43804908,0.26576832,-0.33394444,0.13488606,0.637705,0.03813569,-0.5878136,-0.08514121,0.2967826,841.31866,848.1685,862.27106,859.0476,829.6337,-0.73748779296875,-0.01080322265625,0.65814208984375,-3.00567626953125,2.1234130859375,0.381317138671875,1,1.0,1.0,1.0,1.0,19.28
2023-01-11 22:37:40.132,0.593552,-0.23030193,0.040376507,0.43591607,0.32215175,-0.39574194,0.1310917,0.3325384,0.6529742,-0.07022103,0.35665384,0.67882377,0.16671282,-0.33040598,0.06959269,0.5480197,-0.14265913,-0.6790221,-0.08781141,0.41849363,825.2015,848.5714,838.49817,833.663,802.6374,-0.751220703125,-0.0101318359375,0.659423828125,-2.8411865234375,1.876678466796875,1.084136962890625,1,1.0,1.0,1.0,1.0,19.28
2023-01-11 22:37:41.167,0.4480903,-0.18430603,0.097397305,0.31330428,0.104870185,-0.31130055,-0.062623456,-0.029252658,0.94220597,-0.035471864,0.2250885,0.72060114,0.17220068,-0.37670937,0.0011270146,0.59844947,-0.07607156,-0.6393477,-0.17304859,0.53881854,826.4103,845.34796,823.9927,834.0659,799.011,-0.7322998046875,-0.00848388671875,0.6617431640625,-3.1103515625,2.250518798828125,0.934600830078125,1,1.0,1.0,1.0,1.0,19.28
2023-01-11 22:37:42.176,0.6734633,-0.26912203,-0.25445604,0.084947765,0.3042078,-0.5453326,-0.07824417,-0.072326206,0.9407827,-0.06648001,0.1241681,0.5459954,0.2690789,-0.4376889,-0.1755441,0.5875394,-0.002403054,-0.69066775,-0.21750738,0.5028415,861.06226,855.0183,837.28937,843.73627,836.4835,-0.7421875,-0.00439453125,0.65185546875,-2.87109375,2.34771728515625,0.919647216796875,1,1.0,1.0,1.0,1.0,19.28
2023-01-11 22:37:43.199,0.81710684,-0.032523863,0.35103923,0.31952226,0.6557017,-0.26231217,0.06086029,0.14081892,0.6287205,-0.07927336,0.29443726,0.4065319,0.3445736,-0.5015816,-0.419203,0.33560422,0.2136471,-0.6815423,-0.5444255,0.37518165,832.8571,847.76556,824.3956,826.0073,814.3223,-0.731689453125,-0.01593017578125,0.66949462890625,-2.340240478515625,3.3197021484375,1.2860107421875,1,1.0,1.0,1.0,1.0,19.28
2023-01-11 22:37:44.226,0.79295254,-0.05416063,0.51202524,0.51375693,0.69596577,-0.2175745,0.08303904,0.22751093,0.8215015,-0.08933712,0.41093922,0.35093722,0.38268268,-0.4534535,-0.2256101,0.5191275,0.27134928,-0.6432414,-0.5838933,0.5611287,853.4066,850.989,845.7509,837.6923,811.50183,-0.7393798828125,-0.010986328125,0.6588134765625,-2.49725341796875,2.22808837890625,1.577606201171875,1,1.0,1.0,1.0,1.0,19.28
2023-01-11 22:37:45.240,0.22486578,-0.17824243,0.53433007,0.31442705,0.40551776,-0.501395,0.012711527,0.22264944,0.6732478,0.07137756,0.32994878,0.43842372,0.42929694,-0.17640176,-0.15443696,0.5610857,0.32909113,-0.56690794,-0.699083,0.55164856,852.6007,848.1685,875.56775,864.2857,886.4469,-0.74664306640625,-0.0010986328125,0.65728759765625,-1.734619140625,2.452392578125,3.69354248046875,1,1.0,1.0,1.0,1.0,19.28
2023-01-11 22:37:46.265,0.17982665,-0.20357476,0.36359248,0.44613743,0.11981355,-0.15187344,-0.03920935,0.264388,0.49593574,0.062439483,0.2586214,0.5556368,0.5256905,-0.40604687,-0.25830615,0.50725025,0.4596732,-0.78018904,-0.7754063,0.64194584,872.3443,854.21246,860.2564,875.16486,861.8681,-0.7376708984375,-0.0164794921875,0.6689453125,-3.18511962890625,1.757049560546875,0.904693603515625,1,1.0,1.0,1.0,1.0,19.08
2023-01-11 22:37:47.273,0.6376943,-0.32354277,0.5099374,0.47942007,0.28409994,-0.4730628,0.0033204397,0.014554123,0.8046819,-0.13305578,0.1480463,0.7598399,0.588202,-0.38646394,-0.0022642927,0.88941956,0.48113906,-0.58029604,-0.42060086,0.6859297,861.06226,844.5421,855.42126,881.6117,832.8571,-0.74267578125,-0.00494384765625,0.65167236328125,-3.4991455078125,9.04693603515625,1.158905029296875,1,1.0,1.0,1.0,1.0,19.08
2023-01-11 22:37:48.299,1.0253379,-0.40229735,1.1758261,0.6633358,0.6913626,-0.22353995,0.785388,0.4069559,1.0296516,-0.068769105,0.5748417,1.0976485,0.8810225,-0.32274666,0.26978454,1.0166272,0.7408176,-0.30933496,-0.024777723,0.875227,823.1868,832.8571,899.34064,861.06226,870.7326,-0.750732421875,0.01513671875,0.65350341796875,-3.521575927734375,1.33087158203125,1.5252685546875,1,1.0,1.0,1.0,1.0,19.08
2023-01-11 22:37:49.313,0.9164745,-0.0010953341,1.2043884,0.6718162,0.63137543,-0.28705877,0.89970034,0.31514525,0.7791689,-0.31149253,0.6100851,0.8796278,0.7514456,-0.10518104,0.07415743,0.75842553,0.9728488,-0.37744424,-0.0051198844,0.9138256,857.8388,849.7802,808.2784,878.7912,802.6374,-0.7442626953125,0.00164794921875,0.65435791015625,-2.594451904296875,1.487884521484375,0.515899658203125,1,1.0,1.0,1.0,1.0,19.08
2023-01-11 22:37:50.323,0.7679934,-0.10788103,0.7141025,0.56665874,0.4810048,-0.54648036,0.27983537,0.156506,0.5144691,-0.30275708,0.2327825,0.4870843,0.5711834,-0.1447033,0.0878929,0.87835413,0.6330876,-0.36204785,0.23145503,0.7524636,846.1539,852.6007,820.7692,833.2601,777.25275,-0.736328125,-0.0079345703125,0.660400390625,-3.267364501953125,0.7476806640625,1.951446533203125,1,1.0,1.0,1.0,1.0,19.08
2023-01-11 22:37:51.335,0.7692978,-0.65701,0.47478604,0.2574678,0.09866241,-0.39026082,0.22015314,0.16639064,0.52493304,-0.21541074,0.46174985,0.5636522,0.4224117,-0.4381561,0.047356695,0.72936845,0.1833565,-0.5396293,0.17080916,0.7788624,819.15753,845.7509,837.6923,809.0842,793.7729,-0.73516845703125,-0.00946044921875,0.6700439453125,-2.564544677734375,2.31781005859375,0.88226318359375,1,1.0,1.0,1.0,1.0,19.08
2023-01-11 22:37:51.814,,,,,,,,,,,,,,,,,,,,,,,,,,,,,,,,,,,,,,/muse/elements/blink
2023-01-11 22:37:52.360,0.7987408,-0.28531364,0.44707853,0.25167954,0.23717186,-0.33065447,0.14439772,0.19504562,0.86650485,0.1390384,0.40245908,0.5943882,0.3634108,-0.26310584,0.16223471,0.742199,0.14500363,-0.68912685,0.0499613,0.66658777,818.7546,852.6007,822.7839,819.9634,795.78754,-0.739990234375,-0.0103759765625,0.6636962890625,-2.58697509765625,1.80938720703125,0.83740234375,1,1.0,1.0,1.0,1.0,19.08
2023-01-11 22:37:53.397,0.729344,-0.0882454,0.39895672,0.5226074,0.37085706,-0.47407383,0.059954774,0.5470174,1.0497442,0.5453049,0.30016628,0.8255678,0.78614914,-0.18925257,0.15942186,0.7858892,0.052668966,-0.48786098,0.06849859,0.63507086,847.3626,854.21246,834.4689,833.663,832.8571,-0.74407958984375,-0.0032958984375,0.6578369140625,-2.519683837890625,2.325286865234375,1.39068603515625,1,1.0,1.0,1.0,1.0,19.08
2023-01-11 22:37:54.407,0.7790723,-0.12086739,0.4880123,0.5273343,0.3135227,-0.51947826,-0.13258024,0.36683235,1.0870457,0.29490307,0.3309116,0.6742504,0.6072869,-0.2810247,-0.09336162,0.61831206,0.16867192,-0.6622245,-0.028288826,0.4799974,881.6117,852.1978,863.0769,871.13556,867.9121,-0.7391357421875,0.01373291015625,0.667236328125,-1.607513427734375,2.370147705078125,1.9439697265625,1,1.0,1.0,1.0,1.0,19.08
2023-01-11 22:37:55.424,0.5345349,-0.22603692,0.55026895,0.63289726,0.19860688,-0.2911715,-0.1498474,0.1980325,0.68169117,-0.17950419,0.3640564,0.45910972,0.53630286,-0.33863342,-0.17512602,0.47820777,0.59205586,-0.6748731,-0.2766239,0.7061644,853.8095,854.61536,864.2857,852.6007,869.92676,-0.743408203125,0.00445556640625,0.65765380859375,-2.64678955078125,2.16827392578125,0.994415283203125,1,1.0,1.0,1.0,1.0,19.08
2023-01-11 22:37:56.441,0.82447165,-0.62821114,0.103249095,0.6276986,0.36442158,-0.5094349,-0.18048078,0.18434535,0.1639647,-0.22538573,0.3004008,0.31924126,0.43878478,-0.21119414,-0.21712008,0.536567,0.7148298,-0.48846167,-0.35517597,0.79698616,880.40295,859.45056,863.8828,876.77655,878.3883,-0.74420166015625,6.103515625E-4,0.662841796875,-2.549591064453125,2.444915771484375,0.59814453125,1,1.0,1.0,1.0,1.0,18.80
2023-01-11 22:37:57.450,-0.07609076,-0.31688786,0.06876045,0.11793792,0.14572464,-0.4671165,-0.21110237,0.19605385,0.55448943,-0.23760635,0.14313993,0.5899581,0.3261613,-0.22599155,-0.18099555,0.4443582,0.3844521,-0.5622236,-0.2885268,0.293599,870.32965,858.6447,859.0476,858.24176,857.03296,-0.73199462890625,0.00482177734375,0.666748046875,-2.400054931640625,2.4224853515625,1.45050048828125,1,1.0,1.0,1.0,1.0,18.80
2023-01-11 22:37:58.452,-0.07036001,-0.16328418,0.12232211,0.10154805,0.0025490932,-0.44187936,-0.25429544,-0.24211425,0.5160826,-0.20485398,0.07496701,0.59289265,0.49376634,-0.15100348,-0.073694035,0.27137527,0.32784113,-0.64363164,-0.3866014,0.10615168,863.0769,857.4359,873.5531,842.1245,854.21246,-0.7474365234375,-0.00152587890625,0.66021728515625,-2.609405517578125,2.43743896484375,1.218719482421875,1,1.0,1.0,1.0,1.0,18.80
2023-01-11 22:37:59.465,0.40865883,0.14348523,0.2202569,0.49852237,0.26567683,-0.224153,0.059906624,0.04652595,0.5467812,-0.25272584,-0.06330517,0.64215744,0.68818027,-0.010336013,-0.13675109,0.6721753,0.40467647,-0.67225087,-0.34533852,0.78204906,834.0659,841.7216,871.13556,848.97437,881.6117,-0.73333740234375,0.00311279296875,0.66900634765625,-2.400054931640625,2.564544677734375,1.36077880859375,1,1.0,1.0,1.0,1.0,18.80
