TimeStamp,Delta_TP9,Delta_AF7,Delta_AF8,Delta_TP10,Theta_TP9,Theta_AF7,Theta_AF8,Theta_TP10,Alpha_TP9,Alpha_AF7,Alpha_AF8,Alpha_TP10,Beta_TP9,Beta_AF7,Beta_AF8,Beta_TP10,Gamma_TP9,Gamma_AF7,Gamma_AF8,Gamma_TP10,RAW_TP9,RAW_AF7,RAW_AF8,RAW_TP10,AUX_RIGHT,Accelerometer_X,Accelerometer_Y,Accelerometer_Z,Gyro_X,Gyro_Y,Gyro_Z,HeadBandOn,HSI_TP9,HSI_AF7,HSI_AF8,HSI_TP10,Battery,Elements
2022-11-19 14:04:39.998,,,,,,,,,,,,,,,,,,,,,,,,,,,,,,,,,,,,,,/muse/event/connected Muse-5257
2022-11-19 14:04:40.047,0.9000672,1.028299,0.96664876,1.2916555,0.755581,0.63765526,0.49080342,0.9631242,1.1844308,0.3505085,0.06179269,0.910618,0.5787281,-0.24112071,-0.30922785,0.7107109,0.71756876,-0.4217973,-0.61110604,0.69221765,811.0989,834.4689,845.34796,773.6264,498.4249,0.39691162109375,0.272705078125,0.87847900390625,-50.13946533203125,-7.289886474609375,-133.87969970703125,1,1.0,1.0,1.0,1.0,37.80
2022-11-19 14:04:40.559,,,,,,,,,,,,,,,,,,,,,,,,,,,,,,,,,,,,,,/muse/elements/blink
2022-11-19 14:04:41.065,0.9000672,0.9113153,1.2775332,1.2916555,0.755581,-0.16335778,0.53768194,0.9631242,1.1844308,0.23222971,0.5601175,0.910618,0.5787281,-0.36114526,-0.38119102,0.7107109,0.71756876,-0.59619147,-0.74241245,0.69221765,853.8095,845.34796,860.2564,946.8865,1455.7876,0.258544921875,0.21746826171875,1.03582763671875,-12.329254150390625,2.459869384765625,-32.890472412109375,1,1.0,1.0,1.0,1.0,37.80
2022-11-19 14:04:41.354,,,,,,,,,,,,,,,,,,,,,,,,,,,,,,,,,,,,,,/muse/elements/blink
2022-11-19 14:04:42.011,,,,,,,,,,,,,,,,,,,,,,,,,,,,,,,,,,,,,,/muse/elements/blink
2022-11-19 14:04:42.073,0.9000672,0.8818645,1.2984443,1.2916555,0.755581,0.106251605,0.39594877,0.9631242,1.1844308,0.35067537,0.54797554,0.910618,0.5787281,-0.18179105,-0.3082717,0.7107109,0.71756876,-0.6108712,-0.64035505,0.69221765,809.89014,850.58606,845.7509,805.8608,346.52014,0.2498779296875,0.07916259765625,1.04913330078125,-2.340240478515625,-0.979461669921875,15.5218505859375,1,2.0,1.0,1.0,2.0,37.80
2022-11-19 14:04:42.312,,,,,,,,,,,,,,,,,,,,,,,,,,,,,,,,,,,,,,/muse/elements/blink
2022-11-19 14:04:43.084,0.9000672,0.460506,0.5652542,1.2916555,0.755581,0.30632105,0.08904455,0.9631242,1.1844308,0.41901436,0.1934716,0.910618,0.5787281,-0.3789298,-0.4220348,0.7107109,0.71756876,-0.92426133,-0.6418465,0.69221765,848.1685,849.7802,849.7802,817.5458,1074.6154,0.28753662109375,0.06414794921875,0.8997802734375,12.142333984375,-4.964599609375,42.3187255859375,1,2.0,1.0,1.0,2.0,37.80
2022-11-19 14:04:44.088,0.9000672,0.6328847,0.5607066,1.2916555,0.755581,0.21374626,0.15914087,0.9631242,1.1844308,0.32534575,0.13695486,0.910618,0.5787281,-0.2807438,-0.3909135,0.7107109,0.71756876,-0.73392576,-0.93823326,0.69221765,807.8755,849.3773,853.00366,840.10986,256.26373,0.300048828125,0.1785888671875,0.9505615234375,3.551483154296875,9.70489501953125,17.263946533203125,1,2.0,1.0,1.0,2.0,37.80
2022-11-19 14:04:45.093,0.9000672,0.75433415,0.071418904,1.2916555,0.755581,-0.2613326,-0.2013716,0.9631242,1.1844308,-0.17015985,0.107648954,0.910618,0.5787281,-0.2744606,-0.3475622,0.7107109,0.71756876,-0.88539976,-1.1029328,0.69221765,851.39197,853.8095,851.39197,793.7729,1050.0366,0.26116943359375,0.20123291015625,0.96923828125,-9.49554443359375,-10.0189208984375,-17.2564697265625,1,2.0,1.0,1.0,2.0,37.80
2022-11-19 14:04:46.104,0.9000672,0.8067724,-0.0073158583,1.2916555,0.755581,-0.013740473,-0.2125249,0.9631242,1.1844308,-0.06437304,0.12230982,0.910618,0.5787281,-0.256671,-0.3331464,0.7107109,0.71756876,-0.85095024,-0.9285446,0.69221765,985.16486,866.30035,846.1539,739.3773,65.27473,0.13250732421875,-0.002685546875,1.07171630859375,-16.620941162109375,9.46563720703125,-48.068389892578125,1,2.0,1.0,1.0,2.0,37.84
2022-11-19 14:04:46.385,,,,,,,,,,,,,,,,,,,,,,,,,,,,,,,,,,,,,,/muse/elements/blink
2022-11-19 14:04:46.670,,,,,,,,,,,,,,,,,,,,,,,,,,,,,,,,,,,,,,/muse/elements/blink
2022-11-19 14:04:47.118,0.9000672,0.84159094,-0.3018462,1.2916555,0.755581,-0.027723894,-0.5054299,0.9631242,1.1844308,0.0021409718,-0.41420746,0.910618,0.5787281,-0.37176332,-0.48186693,0.7107109,0.71756876,-0.84640676,-0.9164531,0.69221765,630.58606,850.18317,774.43225,683.7729,751.06226,0.158447265625,0.07196044921875,0.92779541015625,8.516082763671875,-15.813446044921875,-5.0543212890625,1,2.0,1.0,1.0,2.0,37.84
2022-11-19 14:04:47.740,,,,,,,,,,,,,,,,,,,,,,,,,,,,,,,,,,,,,,/muse/elements/blink
2022-11-19 14:04:48.126,0.9000672,0.97811747,-0.70199996,1.2916555,0.755581,-0.06569716,-0.5450573,0.9631242,1.1844308,0.0021409718,-0.55303687,0.910618,0.5787281,-0.3481035,-0.39521334,0.7107109,0.71756876,-0.8223011,-0.84294975,0.69221765,740.58606,830.0366,870.7326,1650.0,887.25275,-0.13922119140625,0.26214599609375,0.893798828125,3.99261474609375,13.62274169921875,24.800567626953125,1,2.0,1.0,1.0,2.0,37.84
2022-11-19 14:04:48.465,,,,,,,,,,,,,,,,,,,,,,,,,,,,,,,,,,,,,,/muse/elements/blink
2022-11-19 14:04:48.682,,,,,,,,,,,,,,,,,,,,,,,,,,,,,,,,,,,,,,/muse/elements/blink
2022-11-19 14:04:49.145,0.9000672,0.97811747,-0.70199996,1.2916555,0.755581,-0.06569716,-0.5450573,0.9631242,1.1844308,0.0021409718,-0.55303687,0.910618,0.5787281,-0.3481035,-0.39521334,0.7107109,0.71756876,-0.8223011,-0.84294975,0.69221765,807.0696,839.304,840.5128,929.5604,37.069595,0.26934814453125,0.2542724609375,0.95892333984375,-8.32916259765625,2.220611572265625,-20.95001220703125,1,2.0,1.0,1.0,2.0,37.84
2022-11-19 14:04:50.047,,,,,,,,,,,,,,,,,,,,,,,,,,,,,,,,,,,,,,/muse/elements/blink
2022-11-19 14:04:50.166,0.9000672,1.4941849,1.2502097,1.2916555,0.755581,0.27822897,0.86633956,0.9631242,1.1844308,0.70925206,1.1823227,0.910618,0.5787281,0.06052429,0.17760207,0.7107109,0.71756876,-0.59972715,-0.55457765,0.69221765,22.564102,796.99634,855.42126,828.8278,297.36264,0.20501708984375,0.0654296875,0.9547119140625,0.10467529296875,12.33673095703125,9.091796875,1,2.0,1.0,1.0,2.0,37.84
2022-11-19 14:04:50.331,,,,,,,,,,,,,,,,,,,,,,,,,,,,,,,,,,,,,,/muse/elements/blink
2022-11-19 14:04:50.713,,,,,,,,,,,,,,,,,,,,,,,,,,,,,,,,,,,,,,/muse/elements/blink
2022-11-19 14:04:50.942,,,,,,,,,,,,,,,,,,,,,,,,,,,,,,,,,,,,,,/muse/elements/blink
2022-11-19 14:04:51.174,0.9000672,1.1251652,1.1296314,1.2916555,0.755581,0.05192848,1.0654085,0.9631242,1.1844308,0.29625377,1.3737721,0.910618,0.5787281,0.086123765,0.227875,0.7107109,0.71756876,-0.5355561,-0.5395407,0.69221765,808.68134,835.6777,846.1539,902.5641,1021.8315,0.23394775390625,-0.00775146484375,0.90155029296875,-12.747955322265625,21.353759765625,35.888671875,1,2.0,1.0,1.0,2.0,37.84
2022-11-19 14:04:51.479,,,,,,,,,,,,,,,,,,,,,,,,,,,,,,,,,,,,,,/muse/elements/blink
2022-11-19 14:04:52.196,0.9000672,1.3212864,0.90071917,1.2916555,0.755581,0.6129909,0.43173954,0.9631242,1.1844308,0.32974198,0.24867807,0.910618,0.5787281,-0.25946623,-0.36395618,0.7107109,0.71756876,-0.7079577,-0.856456,0.69221765,943.2601,876.3736,810.293,901.75824,1275.2748,-0.18505859375,0.21209716796875,0.998046875,-3.21502685546875,-13.226470947265625,-44.703826904296875,1,2.0,1.0,1.0,2.0,37.84
2022-11-19 14:04:52.585,,,,,,,,,,,,,,,,,,,,,,,,,,,,,,,,,,,,,,/muse/elements/blink
2022-11-19 14:04:53.202,0.9000672,1.2397152,1.1114221,1.2916555,0.755581,0.6681004,0.60529304,0.9631242,1.1844308,0.5897291,0.34006613,0.910618,0.5787281,-0.031910084,-0.25092167,0.7107109,0.71756876,-0.34643853,-0.6448647,0.69221765,818.7546,825.6044,816.7399,897.72894,768.3883,0.446533203125,-0.03826904296875,0.88592529296875,1.74957275390625,-7.259979248046875,33.24188232421875,1,2.0,1.0,1.0,2.0,37.84
2022-11-19 14:04:53.390,,,,,,,,,,,,,,,,,,,,,,,,,,,,,,,,,,,,,,/muse/elements/blink
2022-11-19 14:04:53.960,,,,,,,,,,,,,,,,,,,,,,,,,,,,,,,,,,,,,,/muse/elements/blink
2022-11-19 14:04:54.209,0.9000672,1.3144844,1.1938989,1.2916555,0.755581,0.834376,0.6607962,0.9631242,1.1844308,0.5732201,0.32445037,0.910618,0.5787281,0.023706628,-0.22182228,0.7107109,0.71756876,-0.31826675,-0.60964227,0.69221765,872.3443,859.85345,846.55676,850.58606,813.5165,0.4681396484375,0.1654052734375,0.92901611328125,-6.841278076171875,-7.596435546875,-50.22918701171875,1,2.0,1.0,1.0,2.0,37.84
2022-11-19 14:04:54.681,,,,,,,,,,,,,,,,,,,,,,,,,,,,,,,,,,,,,,/muse/elements/blink
2022-11-19 14:04:55.205,,,,,,,,,,,,,,,,,,,,,,,,,,,,,,,,,,,,,,/muse/elements/blink
2022-11-19 14:04:55.219,0.9000672,1.4185542,1.2887499,1.2916555,0.755581,0.43925497,0.947023,0.9631242,1.1844308,0.28284055,0.5951445,0.910618,0.5787281,-0.05816692,-0.06309118,0.7107109,0.71756876,-0.3890871,-0.70453316,0.69221765,832.4542,892.0879,815.12823,848.1685,1438.8645,0.08428955078125,0.32586669921875,0.92999267578125,-10.325469970703125,-10.116119384765625,-148.3099365234375,1,2.0,1.0,1.0,2.0,37.84
2022-11-19 14:04:55.386,,,,,,,,,,,,,,,,,,,,,,,,,,,,,,,,,,,,,,/muse/elements/blink
2022-11-19 14:04:55.736,,,,,,,,,,,,,,,,,,,,,,,,,,,,,,,,,,,,,,/muse/elements/blink
2022-11-19 14:04:56.107,,,,,,,,,,,,,,,,,,,,,,,,,,,,,,,,,,,,,,/muse/elements/blink
2022-11-19 14:04:56.235,0.9000672,1.3217281,1.3832084,1.2916555,0.755581,0.5843521,1.111042,0.9631242,1.1844308,0.35805723,0.7501783,0.910618,0.5787281,0.023033364,0.3011104,0.7107109,0.71756876,-0.07766158,-0.3570567,0.69221765,776.04395,878.3883,806.6667,707.1429,155.1282,0.16314697265625,0.17474365234375,0.95343017578125,19.1107177734375,-9.630126953125,-37.264404296875,1,2.0,1.0,1.0,2.0,37.88
2022-11-19 14:04:56.514,,,,,,,,,,,,,,,,,,,,,,,,,,,,,,,,,,,,,,/muse/elements/blink
2022-11-19 14:04:57.258,0.9000672,1.2174848,0.966612,1.2916555,0.755581,0.46907088,0.658667,0.9631242,1.1844308,0.24088065,0.7238055,0.910618,0.5787281,-0.009506364,0.20954089,0.7107109,0.71756876,-0.30623278,-0.19567181,0.69221765,834.0659,836.4835,847.3626,834.0659,732.1245,0.099609375,0.195068359375,0.7252197265625,0.037384033203125,1.203765869140625,3.476715087890625,1,2.0,1.0,1.0,2.0,37.88
2022-11-19 14:04:58.267,0.9000672,1.175369,0.7165166,1.2916555,0.755581,0.3943494,0.45336828,0.9631242,1.1844308,0.46110177,0.5568222,0.910618,0.5787281,-0.2830649,-0.27286106,0.7107109,0.71756876,-0.7145216,-0.71103495,0.69221765,778.0586,841.31866,844.94507,737.3626,300.989,0.3704833984375,0.2462158203125,0.732177734375,2.504730224609375,-3.349609375,4.17205810546875,1,2.0,1.0,1.0,2.0,37.88
2022-11-19 14:04:58.324,,,,,,,,,,,,,,,,,,,,,,,,,,,,,,,,,,,,,,/muse/elements/blink
2022-11-19 14:04:58.789,,,,,,,,,,,,,,,,,,,,,,,,,,,,,,,,,,,,,,/muse/elements/blink
2022-11-19 14:04:58.939,,,,,,,,,,,,,,,,,,,,,,,,,,,,,,,,,,,,,,/muse/elements/blink
2022-11-19 14:04:59.275,0.9000672,1.0714585,0.86088127,1.2916555,0.755581,0.6040726,0.4032881,0.9631242,1.1844308,0.38050953,0.30136365,0.910618,0.5787281,5.2591035E-4,0.048947446,0.7107109,0.71756876,-0.5936387,-0.58272547,0.69221765,912.23444,837.6923,874.7619,841.31866,195.01831,0.166259765625,0.10552978515625,0.87750244140625,-0.538330078125,-38.408355712890625,66.99966430664062,1,2.0,1.0,1.0,2.0,37.88
2022-11-19 14:04:59.409,,,,,,,,,,,,,,,,,,,,,,,,,,,,,,,,,,,,,,/muse/elements/blink
2022-11-19 14:04:59.645,,,,,,,,,,,,,,,,,,,,,,,,,,,,,,,,,,,,,,/muse/elements/blink
2022-11-19 14:05:00.292,0.9000672,1.3489012,1.1193887,1.2916555,0.755581,0.7364717,0.47523096,0.9631242,1.1844308,0.25923118,0.40043,0.910618,0.5787281,0.031407237,0.11516923,0.7107109,0.71756876,-0.6228531,-0.5463677,0.69221765,827.619,838.9011,801.8315,727.6923,476.66666,0.60015869140625,-0.001708984375,1.1920166015625,5.7122802734375,8.545989990234375,-2.729034423828125,1,2.0,1.0,1.0,2.0,37.88
2022-11-19 14:05:01.302,0.9000672,1.6193411,1.3307037,1.2916555,0.755581,0.95558196,0.7399214,0.9631242,1.1844308,0.2554251,0.29395387,0.910618,0.5787281,0.13569668,-0.026051126,0.7107109,0.71756876,-0.65083826,-0.5418635,0.69221765,850.58606,838.49817,843.3333,807.8755,923.1135,0.4417724609375,0.12982177734375,0.94781494140625,4.762725830078125,-3.27484130859375,-11.61895751953125,1,2.0,1.0,1.0,2.0,37.88
2022-11-19 14:05:02.320,0.9000672,0.44525388,0.081669465,1.2916555,0.755581,0.05845802,-0.3333683,0.9631242,1.1844308,-0.026243621,0.051487766,0.910618,0.5787281,-0.09985419,-0.0017988555,0.7107109,0.71756876,-0.64494586,-0.21456344,0.69221765,799.41394,847.3626,845.7509,778.86444,710.7692,0.4466552734375,0.14959716796875,0.89691162109375,-1.77947998046875,3.132781982421875,1.68975830078125,1,2.0,1.0,1.0,2.0,37.88
2022-11-19 14:05:03.343,1.4877235,0.28395566,-0.26995152,1.2916555,1.2086856,-0.19399108,0.16867425,0.9631242,1.3085986,0.17802626,0.2934721,0.910618,0.7466135,-0.18445377,-0.3135809,0.7107109,0.5878289,-0.60446143,-0.52809596,0.69221765,796.5934,869.92676,832.4542,750.65936,653.5531,0.35552978515625,0.23455810546875,0.926025390625,-2.788848876953125,-3.3197021484375,-35.888671875,1,1.0,1.0,1.0,1.0,37.88
2022-11-19 14:05:04.356,1.3286471,0.7305896,0.46553317,1.2916555,0.9890725,0.34529802,0.24040918,0.9631242,1.2216307,0.62767553,0.233889,0.910618,0.84278226,0.17988136,-0.18355636,0.7107109,0.5908771,-0.35932863,-0.6008894,0.69221765,846.55676,869.12085,863.47986,869.5238,1053.663,0.31060791015625,0.15338134765625,0.96185302734375,-1.0467529296875,-7.125396728515625,-13.271331787109375,1,1.0,1.0,1.0,1.0,37.88
2022-11-19 14:05:05.327,,,,,,,,,,,,,,,,,,,,,,,,,,,,,,,,,,,,,,/muse/elements/jaw_clench
2022-11-19 14:05:05.374,1.219831,1.161718,0.9769513,1.207524,0.64327246,0.6449557,0.5215119,0.9893992,1.0244056,0.78722596,0.36349258,1.4431716,0.93470293,0.2962298,-0.13217545,1.524698,0.64296,-0.15912427,-0.58417815,0.947162,816.337,863.47986,889.67035,869.92676,972.674,0.4300537109375,0.09344482421875,0.87811279296875,-8.95721435546875,-4.65057373046875,12.613372802734375,1,1.0,1.0,1.0,1.0,37.88
2022-11-19 14:05:05.394,,,,,,,,,,,,,,,,,,,,,,,,,,,,,,,,,,,,,,/muse/elements/blink
2022-11-19 14:05:05.647,,,,,,,,,,,,,,,,,,,,,,,,,,,,,,,,,,,,,,/muse/elements/blink
2022-11-19 14:05:05.726,,,,,,,,,,,,,,,,,,,,,,,,,,,,,,,,,,,,,,/muse/elements/jaw_clench
2022-11-19 14:05:06.376,1.219831,0.8532287,1.2059902,1.1317674,0.64327246,0.20114455,0.37001398,1.0347439,1.0244056,0.32384956,0.09764062,1.3660634,0.93470293,0.18345407,-0.052801643,1.4976884,0.64296,-0.20791724,-0.5715842,0.94788605,820.7692,850.18317,857.8388,884.43225,968.6447,0.56341552734375,0.1048583984375,0.8277587890625,3.1402587890625,0.485992431640625,3.9776611328125,1,1.0,1.0,1.0,1.0,37.91
2022-11-19 14:05:07.383,1.219831,0.9884724,0.82665014,1.1317674,0.64327246,0.15354803,0.25984636,1.0347439,1.0244056,0.79114026,0.5684847,1.3660634,0.93470293,0.27440676,0.31540504,1.4976884,0.64296,-0.018883273,0.024451511,0.94788605,852.1978,850.58606,859.0476,879.19415,939.2308,0.533203125,0.12420654296875,0.7935791015625,-1.786956787109375,2.564544677734375,-1.009368896484375,1,1.0,1.0,1.0,1.0,37.91
2022-11-19 14:05:08.234,,,,,,,,,,,,,,,,,,,,,,,,,,,,,,,,,,,,,,/muse/elements/blink
2022-11-19 14:05:08.406,1.219831,0.6868078,0.69708323,1.1317674,0.64327246,-0.047366094,0.16124839,1.0347439,1.0244056,0.595356,0.41525626,1.3660634,0.93470293,-0.09635325,-0.13461864,1.4976884,0.64296,-0.39897698,-0.2787251,0.94788605,878.7912,827.619,873.1502,937.2161,1006.1172,0.57391357421875,0.1240234375,0.824462890625,-0.9869384765625,0.5084228515625,9.413299560546875,1,2.0,1.0,1.0,2.0,37.91
2022-11-19 14:05:09.426,1.219831,0.79507315,1.202941,1.1317674,0.64327246,0.13779883,0.68463826,1.0347439,1.0244056,0.32612678,0.5482403,1.3660634,0.93470293,-0.17097583,-0.11619647,1.4976884,0.64296,-0.37664676,-0.30712664,0.94788605,828.022,841.7216,838.9011,839.707,894.90845,0.594970703125,0.1314697265625,0.81353759765625,-2.67669677734375,2.61688232421875,2.340240478515625,1,2.0,1.0,1.0,2.0,37.91
2022-11-19 14:05:09.814,,,,,,,,,,,,,,,,,,,,,,,,,,,,,,,,,,,,,,/muse/elements/blink
2022-11-19 14:05:10.434,1.219831,0.759447,0.91150177,1.1317674,0.64327246,0.45555058,0.42344666,1.0347439,1.0244056,0.31389844,0.37456137,1.3660634,0.93470293,-0.22317462,-0.20774671,1.4976884,0.64296,-0.47910482,-0.30437434,0.94788605,837.6923,853.4066,841.7216,865.89746,965.82416,0.58477783203125,0.13726806640625,0.80352783203125,-3.013153076171875,0.530853271484375,-0.306549072265625,1,2.0,1.0,1.0,2.0,37.91
2022-11-19 14:05:11.461,1.219831,0.38707998,0.790678,0.9844633,0.64327246,0.38235605,0.23579523,0.31339148,1.0244056,0.29491106,0.14310995,0.8576856,0.93470293,-0.13382138,-0.0579721,1.0678457,0.64296,-0.5307453,-0.31693265,0.92288136,807.8755,848.5714,848.1685,824.7985,701.9048,0.62847900390625,0.15325927734375,0.792236328125,1.233673095703125,-1.9140625,0.560760498046875,1,1.0,1.0,1.0,1.0,37.91
2022-11-19 14:05:12.481,1.1995292,-0.0491124,0.33965465,0.853452,0.75804514,-0.053441443,-0.014897574,0.46659413,1.2854195,-0.028616408,0.019022383,1.3300946,1.0207673,-0.3061356,-0.15914178,1.0663626,0.9148363,-0.47548184,-0.17050754,0.9950643,867.50916,840.5128,855.42126,873.95605,959.7802,0.5867919921875,0.1309814453125,0.78802490234375,-4.4561767578125,2.385101318359375,-0.55328369140625,1,1.0,1.0,1.0,1.0,37.91
2022-11-19 14:05:13.500,1.0781577,-0.14073159,-0.0022470201,0.8297815,0.76751953,0.07584751,0.15076068,0.7669215,1.1540651,0.3954323,0.33455896,1.328168,0.81435156,-0.33704224,-0.41377035,1.053875,0.5861382,-0.68322784,-0.48151365,0.8779934,830.84247,853.00366,841.31866,796.5934,710.7692,0.58856201171875,0.13836669921875,0.78460693359375,-3.506622314453125,3.162689208984375,0.31402587890625,1,1.0,1.0,1.0,1.0,37.91
2022-11-19 14:05:14.522,0.99174535,-0.10566365,-0.01907339,0.89687777,0.8842873,0.020320917,0.23636106,0.78994673,1.2000159,0.516447,0.52679706,1.2572532,0.6726056,-0.3610155,-0.57347125,0.87738675,0.46637616,-0.7476668,-0.7705963,0.7996436,821.1722,856.2271,850.989,811.9048,724.0659,0.5894775390625,0.1168212890625,0.77813720703125,-5.211334228515625,3.75335693359375,0.657958984375,1,1.0,1.0,1.0,1.0,37.91
2022-11-19 14:05:14.868,,,,,,,,,,,,,,,,,,,,,,,,,,,,,,,,,,,,,,/muse/elements/blink
2022-11-19 14:05:15.544,0.9475534,0.28898662,0.5362077,0.6941631,0.7111574,0.14532149,0.30143034,0.5651253,1.0635675,0.2851292,0.518064,1.5409851,0.7598866,-0.3902104,-0.46260685,0.86874795,0.5699934,-0.65138847,-0.69016796,0.72614276,832.0513,853.8095,840.10986,821.1722,790.9524,0.56298828125,0.14154052734375,0.8206787109375,-3.641204833984375,1.951446533203125,-0.351409912109375,1,1.0,1.0,1.0,1.0,37.91
2022-11-19 14:05:16.550,0.7930874,0.78613204,1.3024014,0.5136865,0.5547423,0.33757824,0.77331084,0.46606398,0.6888787,0.44329906,0.41730523,1.5409597,0.761297,-0.18961589,-0.4053579,0.95527655,0.6357644,-0.5822431,-0.6014348,0.6246071,824.7985,836.4835,857.8388,838.0952,815.5311,0.5830078125,0.10467529296875,0.790283203125,-5.570220947265625,-2.175750732421875,-2.773895263671875,1,1.0,1.0,1.0,1.0,37.92
2022-11-19 14:05:17.573,0.7930874,0.7189045,1.1928931,0.5136865,0.5547423,0.17218255,0.58276916,0.46606398,0.6888787,0.3960409,0.40769345,1.5409597,0.761297,-0.2626361,-0.58313423,0.95527655,0.6357644,-0.6615377,-0.98875046,0.6246071,817.9487,862.674,864.2857,823.9927,654.7619,0.6326904296875,0.13330078125,0.7783203125,-0.919647216796875,0.321502685546875,1.6748046875,1,2.0,1.0,1.0,2.0,37.92
2022-11-19 14:05:18.597,0.7930874,0.4993836,0.40973684,0.95805204,0.5547423,-0.08608147,-0.15866789,0.6235188,0.6888787,-0.03761413,-0.098143704,0.98211795,0.761297,-0.27820963,-0.500518,0.8315073,0.6357644,-0.73845476,-0.9431572,0.52948785,828.4249,853.00366,857.03296,844.5421,876.3736,0.5994873046875,0.12530517578125,0.794189453125,-2.7813720703125,7.768402099609375,-1.42059326171875,1,1.0,1.0,1.0,1.0,37.92
2022-11-19 14:05:19.618,0.7930874,0.35568228,0.06881724,1.0409861,0.5547423,0.0064800205,-0.24254453,0.7265888,0.6888787,1.3722277E-4,-0.10255654,0.98876214,0.761297,-0.19583343,-0.6413295,0.75723445,0.6357644,-0.68143094,-0.9824765,0.66974545,840.10986,845.7509,844.5421,844.1392,957.76556,0.5133056640625,0.1495361328125,0.8505859375,-1.07666015625,2.639312744140625,1.1962890625,1,1.0,1.0,1.0,1.0,37.92
2022-11-19 14:05:20.640,0.0012572947,-0.15496233,-0.15108246,-0.13537446,-0.26879442,-0.3785126,-0.45438236,-0.027927473,0.3880559,-0.3199686,-0.57118523,0.80480075,0.500606,-0.6078046,-0.79931825,0.7177595,0.3654036,-0.9254146,-0.99619585,0.56512004,825.2015,848.1685,851.79486,816.7399,763.5531,0.511962890625,0.1436767578125,0.84454345703125,-3.536529541015625,3.24493408203125,1.069183349609375,1,1.0,1.0,1.0,1.0,37.92
2022-11-19 14:05:21.648,0.030688396,0.08969994,-0.19244263,0.06705168,-0.07683814,-0.17647736,-0.6284857,-0.034680992,0.6949742,-0.3163908,-0.3915055,0.6162395,0.40615654,-0.76590616,-0.8354408,0.69888824,0.36785284,-1.0726829,-0.9368138,0.5085101,853.00366,855.0183,852.1978,865.4945,975.89746,0.48712158203125,0.14141845703125,0.85089111328125,-1.577606201171875,2.76641845703125,1.07666015625,1,1.0,1.0,1.0,1.0,37.92
2022-11-19 14:05:22.605,,,,,,,,,,,,,,,,,,,,,,,,,,,,,,,,,,,,,,/muse/elements/blink
2022-11-19 14:05:22.650,-0.25204697,0.064128116,-0.19853662,-0.073904715,0.097118035,-0.18640131,-0.5900589,-0.14411469,0.7053178,-0.37771857,-0.2887648,0.5723114,0.4259301,-0.65397364,-0.76633155,0.5987574,0.20662913,-1.1154641,-1.0897759,0.45009452,848.1685,863.8828,857.4359,855.82416,925.9341,0.4842529296875,0.15325927734375,0.84564208984375,-0.456085205078125,2.07855224609375,4.23187255859375,1,1.0,1.0,1.0,1.0,37.92
2022-11-19 14:05:23.654,1.34334,0.45343703,0.5552922,1.4051117,0.9377213,-0.0630869,0.050767086,1.0058397,1.1410799,0.024081443,0.13627493,1.20366,0.55961996,-0.31263936,-0.56239164,0.83589995,0.41909057,-0.72351843,-0.89413136,0.44652468,830.84247,841.7216,857.4359,872.3443,985.9707,0.47369384765625,0.149169921875,0.8465576171875,-2.64678955078125,2.519683837890625,1.233673095703125,1,1.0,1.0,1.0,1.0,37.92
2022-11-19 14:05:24.450,,,,,,,,,,,,,,,,,,,,,,,,,,,,,,,,,,,,,,/muse/elements/blink
2022-11-19 14:05:24.679,1.3452771,0.5455012,0.8730052,1.3268579,0.8366467,0.17190512,0.40702778,0.86701185,1.0758685,0.40913126,0.45578763,1.1308215,0.6127949,-0.2452276,-0.46231428,0.80181384,0.5057421,-0.74507844,-0.9948767,0.49010974,793.36993,821.1722,873.5531,888.46155,917.0696,0.62542724609375,0.14202880859375,0.77880859375,-4.844970703125,0.112152099609375,-4.5458984375,1,1.0,1.0,1.0,1.0,37.92
2022-11-19 14:05:25.571,,,,,,,,,,,,,,,,,,,,,,,,,,,,,,,,,,,,,,/muse/elements/blink
2022-11-19 14:05:25.701,1.3452771,1.1590141,1.2996392,1.1888535,0.8366467,0.47742724,0.76643574,0.67249906,1.0758685,0.41830152,0.60206324,0.9909839,0.6127949,-0.36184078,-0.4613945,0.66951746,0.5057421,-0.6867946,-0.8926726,0.50799024,833.663,854.21246,859.0476,864.68866,902.96704,0.43988037109375,0.13739013671875,0.8939208984375,0.336456298828125,10.706787109375,-3.60382080078125,1,1.0,1.0,1.0,1.0,37.95
2022-11-19 14:05:26.708,1.07315,1.2137692,1.0238638,1.4967834,1.1627991,0.52032745,0.5798992,1.1511387,0.7678575,0.3690569,0.47111425,1.6205561,0.43498808,-0.29941538,-0.42343625,0.9862608,0.36290583,-0.65879446,-0.4809682,0.7247408,864.68866,855.82416,847.3626,858.24176,992.4176,0.306640625,0.13775634765625,0.929931640625,0.35888671875,7.28240966796875,5.682373046875,1,1.0,1.0,1.0,1.0,37.95
2022-11-19 14:05:27.730,0.7623445,0.07757968,0.11081362,1.2183888,0.8174976,0.043422036,0.086898655,0.8480772,1.1329672,0.37151337,0.2037818,1.5677743,0.4928644,-0.2914701,-0.22096968,0.82213086,0.46372586,-0.7401532,-0.33383375,0.69288445,838.9011,857.03296,846.55676,852.1978,891.28204,0.2904052734375,0.1258544921875,0.9383544921875,-4.53094482421875,2.07855224609375,2.056121826171875,1,1.0,1.0,1.0,1.0,37.95
2022-11-19 14:05:28.749,0.99249667,-0.1772217,0.24987511,0.6441177,0.596353,-0.39372584,-0.14551473,0.21161555,1.0873911,0.019881863,0.282915,0.82882047,0.62077487,-0.20378171,-0.32454538,0.68902606,0.5434224,-0.6558791,-0.5469507,0.667823,846.55676,846.55676,849.7802,865.4945,965.0183,0.29754638671875,0.14764404296875,0.93951416015625,-1.577606201171875,2.22808837890625,1.12152099609375,1,1.0,1.0,1.0,1.0,37.95
2022-11-19 14:05:29.774,0.77387375,-0.015101905,0.5978005,0.711169,0.3295333,-0.17441617,-0.021873387,0.4399052,1.1519735,0.18665643,0.29371035,1.2037588,0.9684678,-0.28855887,-0.29982787,1.167669,0.67183745,-0.34308472,-0.38676584,1.1594505,842.9304,858.6447,848.1685,851.39197,885.64105,0.32928466796875,0.112548828125,0.9398193359375,-2.7215576171875,0.022430419921875,1.00189208984375,1,1.0,1.0,1.0,1.0,37.95
2022-11-19 14:05:30.789,0.3450503,-0.11625322,0.4646598,0.6064308,0.1589033,-0.13344207,-0.44458047,0.4381268,1.1802205,0.07001244,-0.2790097,1.3405805,1.0009252,-0.3607707,-0.2372088,1.0879554,0.7106758,-0.3000155,-0.3685281,1.032792,874.7619,854.21246,851.79486,861.8681,948.0952,0.3514404296875,0.1195068359375,0.94293212890625,-3.401947021484375,2.093505859375,0.8074951171875,1,1.0,1.0,1.0,1.0,37.95
2022-11-19 14:05:31.805,-0.008363297,-0.20863107,-0.11617745,-0.12143082,-0.267952,-0.28713876,-0.48490927,0.09606059,1.1057684,0.1284973,-0.15294419,1.2791842,0.81947416,-0.4218938,-0.3957552,0.8486249,0.44899157,-0.51808196,-0.7525683,0.5303494,840.9158,855.42126,859.0476,825.6044,736.1539,0.34454345703125,0.12030029296875,0.9298095703125,-1.54022216796875,1.62994384765625,1.0467529296875,1,1.0,1.0,1.0,1.0,37.95
2022-11-19 14:05:32.824,0.34216413,0.003905335,-0.20474194,0.32807088,0.7592268,-0.20928304,-0.17265227,0.6916404,1.6711138,0.7360964,-0.10755128,1.2542577,0.72802186,-0.3217206,-0.45477015,0.949856,0.47170433,-0.69848514,-0.87707925,0.5592088,846.55676,852.6007,850.58606,824.3956,781.685,0.3499755859375,0.12396240234375,0.93011474609375,-1.652374267578125,0.590667724609375,2.03369140625,1,1.0,1.0,1.0,1.0,37.95
2022-11-19 14:05:33.830,0.38387188,0.28408095,-0.25476712,0.43096793,0.9054143,-0.017951835,-0.13645338,0.7910227,1.7169496,0.7225196,0.23280595,1.2881008,0.6869918,-0.27187535,-0.4949312,0.86655027,0.5844848,-0.6276944,-0.67742157,0.6076019,849.3773,846.1539,856.2271,855.42126,834.4689,0.35418701171875,0.1241455078125,0.9296875,-2.310333251953125,2.100982666015625,0.35888671875,1,1.0,1.0,1.0,1.0,37.95
2022-11-19 14:05:34.852,-0.026770331,0.27629972,-0.503189,-0.26265106,0.49815106,-0.33743325,-0.8294927,0.20823343,1.4701269,0.21517274,-0.05639225,1.0615208,0.74666613,-0.3517177,-0.59657496,0.8479649,0.6744543,-0.46322247,-0.5415142,0.6554622,820.7692,855.0183,854.21246,833.2601,742.6007,0.3531494140625,0.12451171875,0.92510986328125,-2.429962158203125,1.831817626953125,1.1962890625,1,1.0,1.0,1.0,1.0,37.95
2022-11-19 14:05:35.875,0.14491452,-0.11010005,-0.5935353,-0.09084847,0.2087873,-0.4121647,-0.6339724,0.3397668,1.3269258,0.0219725,-0.47811493,1.1184119,0.7300856,-0.385589,-0.5940534,0.8295111,0.5624726,-0.5584497,-0.508361,0.80953515,798.20514,837.6923,877.5824,803.8461,735.7509,0.3572998046875,0.1243896484375,0.92230224609375,-3.342132568359375,0.964508056640625,1.637420654296875,1,1.0,1.0,1.0,1.0,37.98
2022-11-19 14:05:36.882,1.0368848,0.2163892,0.5543436,0.3657389,1.3287024,0.19541688,0.0036727532,0.84149873,1.9573584,0.7922542,0.4567026,1.2553823,0.7276965,-0.22938429,-0.27966422,1.0122315,0.45328242,-0.6630339,-0.3910124,0.8362503,827.619,848.97437,855.82416,818.3516,753.8828,0.358154296875,0.122314453125,0.92205810546875,-2.370147705078125,0.897216796875,1.353302001953125,1,1.0,1.0,1.0,1.0,37.98
2022-11-19 14:05:37.903,0.8977435,0.022859083,0.33242247,0.3465601,1.3854774,0.19894561,-0.13701715,0.89829385,1.9583807,0.7787135,0.44381014,1.286233,0.80763865,-0.35503742,-0.25751433,1.0229044,0.55251753,-0.6544318,-0.50611377,0.6464669,826.0073,855.0183,850.989,808.68134,823.1868,0.3646240234375,0.11846923828125,0.9212646484375,-2.51220703125,2.13836669921875,1.398162841796875,1,1.0,1.0,1.0,1.0,37.98
2022-11-19 14:05:38.911,-0.0017695786,0.14301991,0.14263856,0.06953543,-0.10400136,-0.32379723,-0.1971463,0.1964631,0.66740674,-0.18244053,0.03279423,1.1163752,0.5870989,-0.34693533,-0.3613406,0.8947886,0.5785522,-0.35174912,-0.44828153,0.40611506,838.0952,853.8095,855.0183,813.1135,737.76556,0.36700439453125,0.11767578125,0.9288330078125,-2.594451904296875,1.80938720703125,1.233673095703125,1,1.0,1.0,1.0,1.0,37.98
2022-11-19 14:05:39.932,0.0112125985,0.40334842,0.22980468,0.113455564,-0.14525181,-0.5869599,-0.29447278,0.118862756,0.60481685,-0.15032816,-0.01886532,1.0301714,0.5148767,-0.25246438,-0.379404,0.9040729,0.54021513,-0.45383742,-0.4444453,0.3961202,804.2491,847.3626,849.3773,804.2491,827.619,0.36602783203125,0.1199951171875,0.92254638671875,-3.09539794921875,1.532745361328125,1.368255615234375,1,1.0,1.0,1.0,1.0,37.98
2022-11-19 14:05:40.938,0.5831609,0.55128807,0.35806644,0.776844,-0.13072549,-0.16268656,-0.0014803222,-0.020496728,0.93548846,0.061148815,0.08652776,1.4684592,0.9955016,-0.049474664,-0.16144685,1.175861,0.54717666,-0.21201247,-0.2917169,0.7256649,823.1868,843.3333,839.304,763.95605,796.5934,0.3758544921875,0.125732421875,0.9326171875,-1.772003173828125,2.011260986328125,0.829925537109375,1,1.0,1.0,1.0,1.0,37.98
2022-11-19 14:05:41.597,,,,,,,,,,,,,,,,,,,,,,,,,,,,,,,,,,,,,,/muse/elements/jaw_clench
2022-11-19 14:05:41.943,0.5831609,0.3831856,0.3635921,0.5353039,-0.13072549,0.04484964,0.20054345,0.17389509,0.93548846,0.4567272,0.25971943,1.4486746,0.9955016,0.31000945,0.1552501,1.1615819,0.54717666,0.12856558,-0.110895954,0.95706326,853.00366,843.73627,858.6447,886.8498,964.21246,0.3690185546875,0.13153076171875,0.92437744140625,-1.667327880859375,1.547698974609375,-0.112152099609375,1,1.0,1.0,1.0,1.0,37.98
2022-11-19 14:05:42.952,0.5076009,0.28304702,0.26399454,0.33539823,-0.08942141,0.21113616,-0.18029892,0.26535442,0.92421585,0.3817766,-0.01569277,1.2789207,1.0148307,0.38594335,0.22656982,1.1440375,0.5391496,0.24934356,0.08266391,1.2559465,827.2161,855.82416,869.92676,869.5238,813.5165,0.3624267578125,0.11187744140625,0.90203857421875,-4.074859619140625,2.70660400390625,1.48040771484375,1,1.0,1.0,1.0,1.0,37.98
2022-11-19 14:05:43.323,,,,,,,,,,,,,,,,,,,,,,,,,,,,,,,,,,,,,,/muse/elements/jaw_clench
2022-11-19 14:05:43.656,,,,,,,,,,,,,,,,,,,,,,,,,,,,,,,,,,,,,,/muse/elements/jaw_clench
2022-11-19 14:05:43.954,0.5751347,0.38976818,0.08193102,0.24635404,0.47736487,0.09552881,-0.4166399,0.23783587,1.3865043,0.18475239,-0.14676224,1.1970963,1.2418982,0.13546303,0.14502011,1.1412251,1.3856342,0.33782652,0.35756838,1.3304839,857.4359,861.06226,868.71796,850.989,749.0476,0.36834716796875,0.13037109375,0.923828125,-2.250518798828125,2.4822998046875,0.28411865234375,1,1.0,1.0,1.0,1.0,37.98
2022-11-19 14:05:44.026,,,,,,,,,,,,,,,,,,,,,,,,,,,,,,,,,,,,,,/muse/elements/jaw_clench
2022-11-19 14:05:44.681,,,,,,,,,,,,,,,,,,,,,,,,,,,,,,,,,,,,,,/muse/elements/jaw_clench
2022-11-19 14:05:44.964,0.6522138,0.4149686,-0.12751159,0.27023417,0.4970525,-0.017848292,-0.7840403,0.28172404,1.3805444,-0.019168474,-0.009358865,1.1730415,1.2500141,0.32435483,0.24790555,1.1100991,1.4033902,0.44418675,0.38362134,1.3615006,892.8938,846.1539,860.65936,830.0366,956.1539,0.39385986328125,0.13360595703125,0.927490234375,-0.7476806640625,0.897216796875,-0.844879150390625,1,1.0,1.0,1.0,1.0,37.98
2022-11-19 14:05:45.153,,,,,,,,,,,,,,,,,,,,,,,,,,,,,,,,,,,,,,/muse/elements/jaw_clench
2022-11-19 14:05:45.669,,,,,,,,,,,,,,,,,,,,,,,,,,,,,,,,,,,,,,/muse/elements/blink
2022-11-19 14:05:45.669,,,,,,,,,,,,,,,,,,,,,,,,,,,,,,,,,,,,,,/muse/elements/jaw_clench
2022-11-19 14:05:45.982,0.6522138,-0.1702568,0.100583084,0.2151017,0.4970525,-0.026291104,-0.059589047,0.3528386,1.3805444,0.51798713,0.38255236,1.5736812,1.2500141,0.3681019,0.4065164,1.8512845,1.4033902,0.6146938,0.28678456,1.6904014,863.0769,830.0366,847.76556,812.3077,926.337,0.32196044921875,0.12646484375,0.897705078125,-3.596343994140625,4.42626953125,1.98883056640625,1,1.0,1.0,1.0,1.0,38.02
2022-11-19 14:05:46.986,0.6522138,0.545988,0.42958936,0.24041563,0.4970525,0.20226263,0.22752745,0.4129667,1.3805444,0.6228905,0.38542295,1.5442587,1.2500141,0.6131424,0.6083871,1.9183209,1.4033902,0.7128504,0.41284445,1.7289778,796.1905,842.52747,886.04395,835.6777,863.8828,0.299072265625,0.14337158203125,0.93023681640625,-2.878570556640625,5.1141357421875,1.203765869140625,1,1.0,1.0,1.0,1.0,38.02
2022-11-19 14:05:48.009,0.6522138,0.85475886,0.5275805,0.24041563,0.4970525,0.25292915,0.26875442,0.4129667,1.3805444,0.45893162,0.24310382,1.5442587,1.2500141,0.36077914,0.7542889,1.9183209,1.4033902,0.27038604,0.59655935,1.7289778,838.49817,855.82416,815.9341,853.4066,948.9011,0.26287841796875,0.13580322265625,0.9534912109375,-2.444915771484375,0.904693603515625,2.041168212890625,1,1.0,1.0,1.0,1.0,38.02
2022-11-19 14:05:49.033,0.6522138,0.60210407,0.53617305,0.8300855,0.4970525,0.10617091,-0.3440854,0.67535543,1.3805444,0.17769276,-0.082287334,1.4004079,1.2500141,-0.088500746,-0.19529848,0.94685304,1.4033902,-0.26274654,-0.118670404,0.723853,820.7692,850.58606,825.2015,846.1539,929.5604,0.28363037109375,0.133056640625,0.93963623046875,-2.22808837890625,1.861724853515625,4.90478515625,1,1.0,1.0,1.0,1.0,38.02
2022-11-19 14:05:50.060,1.093302,0.34164226,0.18731825,0.592467,0.31427878,-0.33910945,-0.58351856,0.22981997,0.78454584,0.02039181,0.028493205,1.5947672,0.49884793,-0.25663552,-0.110858105,1.0161957,0.7676888,-0.24693145,-0.13654265,0.9191891,858.24176,854.61536,814.7253,860.65936,884.43225,0.25042724609375,0.10699462890625,0.9578857421875,-2.923431396484375,-0.7177734375,2.669219970703125,1,1.0,1.0,1.0,1.0,38.02
2022-11-19 14:05:51.079,0.4207012,-0.14091603,-0.1655215,0.23053835,-0.19780472,-0.6737364,-0.6907282,0.005565144,0.8556646,-0.1250254,-0.02705482,1.08186,0.75628686,-0.30223155,-0.37824097,0.9211522,1.0111731,-0.09509706,-0.2905068,0.8319622,843.73627,857.03296,809.4872,843.3333,834.87177,0.27001953125,0.1529541015625,0.96331787109375,0.471038818359375,3.81317138671875,4.3963623046875,1,1.0,1.0,1.0,1.0,38.02
2022-11-19 14:05:52.101,0.048204023,0.059459236,0.050229587,0.04209307,-0.19934896,-0.6554147,-0.4666543,0.10916293,0.5973815,-0.13001333,-0.16271095,0.75268674,0.66116977,-0.2631518,-0.28859806,0.8918503,0.87970525,0.026217744,-0.25072804,0.85379446,827.2161,859.85345,822.381,845.7509,762.74725,0.1961669921875,0.05450439453125,0.98406982421875,-1.772003173828125,5.69732666015625,2.930908203125,1,1.0,1.0,1.0,1.0,38.02
2022-11-19 14:05:53.107,0.12594822,-0.16367717,-0.2457618,0.52741146,-0.32034922,-0.43654937,-0.37335452,0.3568418,0.46194077,-0.06886089,0.071403414,0.9981773,0.53315747,-0.40365058,-0.313412,0.95757395,0.72779804,-0.18051894,-0.30762312,0.84213084,831.2454,860.65936,825.6044,816.337,723.663,0.053466796875,0.10357666015625,1.11773681640625,0.0897216796875,0.179443359375,-3.6785888671875,1,1.0,1.0,1.0,1.0,38.02
2022-11-19 14:05:54.111,0.7614871,-0.13828796,-0.21769013,0.62899673,0.4292806,-0.46300066,-0.3952149,0.17836595,1.258915,0.056163356,0.013635768,1.3126638,0.94459814,-0.4606693,-0.41132087,1.0492132,0.5089403,-0.5342529,-0.38744256,0.9413006,834.4689,855.0183,812.3077,870.7326,751.8681,0.174072265625,0.12457275390625,0.87322998046875,13.346099853515625,8.471221923828125,17.33123779296875,1,1.0,1.0,1.0,1.0,38.02
2022-11-19 14:05:55.088,,,,,,,,,,,,,,,,,,,,,,,,,,,,,,,,,,,,,,/muse/elements/blink
2022-11-19 14:05:55.137,1.3477904,0.9935534,0.96008915,0.92514896,0.8652031,0.3087056,0.64561087,0.51275915,1.6205132,0.3536701,0.61631215,1.3191141,1.0027362,-0.29910198,-0.24550115,1.214423,0.6269651,-0.57254684,-0.38469353,0.95797634,836.8865,849.7802,838.0952,863.0769,1251.5018,-0.047119140625,0.15777587890625,0.99609375,1.353302001953125,14.512481689453125,35.402679443359375,1,1.0,1.0,1.0,1.0,38.02
2022-11-19 14:05:56.157,1.5265082,1.1231978,1.1450367,0.86781454,1.0448872,0.46645093,0.9494808,0.67888945,1.4870073,0.419408,0.68427217,1.199929,0.9991728,-0.16349405,-0.2566099,1.1322842,0.5661341,-0.5828551,-0.60735303,0.88579726,786.9231,857.03296,839.304,725.6777,0.0,-0.0035400390625,0.15594482421875,0.95330810546875,-11.88812255859375,-2.549591064453125,48.46466064453125,1,1.0,1.0,1.0,1.0,38.03
2022-11-19 14:05:56.730,,,,,,,,,,,,,,,,,,,,,,,,,,,,,,,,,,,,,,/muse/elements/blink
2022-11-19 14:05:57.177,1.5265082,0.8729316,1.166237,0.86781454,1.0448872,0.5304797,0.960103,0.67888945,1.4870073,0.43454644,0.70060927,1.199929,0.9991728,-0.18190914,-0.3289358,1.1322842,0.5661341,-0.72974604,-0.94149387,0.88579726,819.9634,844.1392,843.3333,724.0659,91.06227,-0.067626953125,0.19110107421875,0.99493408203125,-3.09539794921875,-1.016845703125,13.6376953125,1,1.0,1.0,1.0,1.0,38.03
2022-11-19 14:05:58.187,1.5265082,0.6619188,1.205342,0.86781454,1.0448872,-0.004768898,0.5349833,0.67888945,1.4870073,0.2145922,0.47341907,1.199929,0.9991728,-0.25447467,-0.14357871,1.1322842,0.5661341,-0.7378874,-0.4665634,0.88579726,851.39197,860.65936,855.82416,862.674,1153.5897,-0.158203125,0.17254638671875,1.1119384765625,-0.83740234375,7.19268798828125,-21.959381103515625,1,2.0,1.0,1.0,2.0,38.03
2022-11-19 14:05:59.207,1.5265082,0.97437507,1.0128709,0.86781454,1.0448872,0.3635608,0.69515365,0.67888945,1.4870073,0.5412926,0.6208264,1.199929,0.9991728,-0.09953949,-0.070136234,1.1322842,0.5661341,-0.6733881,-0.25204077,0.88579726,840.10986,852.6007,842.52747,860.2564,1089.5238,-0.1260986328125,0.26483154296875,0.95111083984375,-9.79461669921875,13.47320556640625,66.31927490234375,1,2.0,1.0,1.0,2.0,38.03
2022-11-19 14:05:59.695,,,,,,,,,,,,,,,,,,,,,,,,,,,,,,,,,,,,,,/muse/elements/blink
2022-11-19 14:06:00.216,1.5265082,0.82285124,1.3096049,0.86781454,1.0448872,0.40486935,0.88981825,0.67888945,1.4870073,0.44356132,0.48764738,1.199929,0.9991728,-0.1795888,-0.2971571,1.1322842,0.5661341,-0.7626317,-0.6688356,0.88579726,824.3956,855.42126,853.4066,855.82416,1050.4396,0.105712890625,0.19329833984375,0.96319580078125,-14.1461181640625,-18.40789794921875,-17.891998291015625,1,2.0,1.0,1.0,2.0,38.03
2022-11-19 14:06:01.250,1.5265082,1.0961596,1.4190284,0.86781454,1.0448872,0.27590537,0.8202862,0.67888945,1.4870073,0.16891503,0.46009812,1.199929,0.9991728,-0.2346794,-0.33743265,1.1322842,0.5661341,-0.71702933,-0.81210214,0.88579726,838.49817,848.97437,845.34796,846.9597,574.9817,-0.10687255859375,0.0743408203125,1.17529296875,8.531036376953125,9.22637939453125,-80.6597900390625,1,2.0,1.0,1.0,2.0,38.03
2022-11-19 14:06:01.792,,,,,,,,,,,,,,,,,,,,,,,,,,,,,,,,,,,,,,/muse/elements/blink
2022-11-19 14:06:02.273,1.5265082,1.264191,1.2267333,0.86781454,1.0448872,0.29934782,0.7447436,0.67888945,1.4870073,0.87252176,0.8361506,1.199929,0.9991728,-0.32977045,-0.25054526,1.1322842,0.5661341,-0.705674,-0.7397795,0.88579726,865.4945,838.49817,846.1539,825.6044,377.94873,-0.01226806640625,0.18194580078125,0.86181640625,-7.7459716796875,-22.123870849609375,-10.923614501953125,1,2.0,1.0,1.0,2.0,38.03
2022-11-19 14:06:02.310,,,,,,,,,,,,,,,,,,,,,,,,,,,,,,,,,,,,,,/muse/elements/blink
2022-11-19 14:06:03.282,1.5265082,1.066959,0.7964384,0.86781454,1.0448872,0.4076997,0.8082014,0.67888945,1.4870073,0.98448235,0.88416725,1.199929,0.9991728,-0.33132067,-0.25955,1.1322842,0.5661341,-0.53790164,-0.47167525,0.88579726,776.4469,846.55676,848.97437,821.1722,153.11356,0.0784912109375,0.29901123046875,0.94366455078125,6.400146484375,1.51031494140625,-8.32916259765625,1,2.0,1.0,1.0,2.0,38.03
2022-11-19 14:06:03.318,,,,,,,,,,,,,,,,,,,,,,,,,,,,,,,,,,,,,,/muse/elements/blink
2022-11-19 14:06:04.301,1.5265082,1.263177,0.64308035,0.86781454,1.0448872,0.43081525,0.56732047,0.67888945,1.4870073,0.7134433,0.7904644,1.199929,0.9991728,-0.21591766,-0.15538682,1.1322842,0.5661341,-0.50036645,-0.5173313,0.88579726,677.326,858.24176,832.0513,494.79852,0.0,-0.029052734375,0.180908203125,0.8636474609375,-4.725341796875,10.190887451171875,-7.177734375,1,2.0,1.0,1.0,2.0,38.03
2022-11-19 14:06:04.506,,,,,,,,,,,,,,,,,,,,,,,,,,,,,,,,,,,,,,/muse/elements/blink
2022-11-19 14:06:04.741,,,,,,,,,,,,,,,,,,,,,,,,,,,,,,,,,,,,,,/muse/elements/blink
2022-11-19 14:06:05.308,1.5265082,0.6897735,0.646809,0.86781454,1.0448872,0.3547569,0.45354855,0.67888945,1.4870073,0.25685033,0.57577676,1.199929,0.9991728,0.014244228,-0.0770877,1.1322842,0.5661341,-0.45520613,-0.46632493,0.88579726,779.67035,844.5421,853.00366,731.7216,22.564102,0.068603515625,0.28106689453125,0.98663330078125,5.764617919921875,-12.48626708984375,-38.363494873046875,1,2.0,1.0,1.0,2.0,38.05
2022-11-19 14:06:06.315,1.5265082,0.74770933,0.80185974,0.86781454,1.0448872,0.39672253,0.4620906,0.67888945,1.4870073,0.2756588,0.43775007,1.199929,0.9991728,-0.1339477,-0.29598406,1.1322842,0.5661341,-0.3255015,-0.4327953,0.88579726,840.10986,848.97437,857.8388,844.94507,1075.8242,-0.05792236328125,0.18426513671875,0.94073486328125,1.15142822265625,-7.7459716796875,-18.67706298828125,1,2.0,1.0,1.0,2.0,38.05
2022-11-19 14:06:07.334,1.5265082,0.31092286,0.19528738,0.86781454,1.0448872,-0.22112308,-0.21909153,0.67888945,1.4870073,0.07723753,0.2852765,1.199929,0.9991728,-0.37936488,-0.32105488,1.1322842,0.5661341,-0.5472672,-0.39233896,0.88579726,908.20514,844.1392,848.1685,994.0293,1650.0,0.01458740234375,0.21771240234375,0.93536376953125,-8.037567138671875,-4.65057373046875,-6.317901611328125,1,2.0,1.0,1.0,2.0,38.05
2022-11-19 14:06:07.607,,,,,,,,,,,,,,,,,,,,,,,,,,,,,,,,,,,,,,/muse/elements/blink
2022-11-19 14:06:08.342,1.5265082,0.76423526,0.63250476,0.86781454,1.0448872,0.3788105,0.27032933,0.67888945,1.4870073,0.35258022,0.5331323,1.199929,0.9991728,-0.28582653,0.01224455,1.1322842,0.5661341,-0.29517856,0.17991129,0.88579726,826.8132,857.03296,839.707,763.1502,192.60074,0.06689453125,0.1553955078125,1.08953857421875,-12.261962890625,-4.9346923828125,46.513214111328125,1,2.0,1.0,1.0,2.0,38.05
2022-11-19 14:06:08.898,,,,,,,,,,,,,,,,,,,,,,,,,,,,,,,,,,,,,,/muse/elements/blink
2022-11-19 14:06:09.362,1.5265082,0.84541446,0.8791643,0.86781454,1.0448872,0.42854816,0.42322508,0.67888945,1.4870073,0.36047173,0.52434254,1.199929,0.9991728,-0.13209006,-0.20409139,1.1322842,0.5661341,-0.4790577,-0.24912998,0.88579726,853.00366,863.8828,845.7509,842.9304,1110.4762,0.10662841796875,0.07281494140625,0.9761962890625,-10.15350341796875,-2.04864501953125,15.7611083984375,1,2.0,1.0,1.0,2.0,38.05
2022-11-19 14:06:09.953,,,,,,,,,,,,,,,,,,,,,,,,,,,,,,,,,,,,,,/muse/elements/blink
2022-11-19 14:06:10.365,1.5265082,1.2976493,0.8457321,0.86781454,1.0448872,0.40916184,0.16369224,0.67888945,1.4870073,0.43062326,0.19839932,1.199929,0.9991728,-0.23676758,-0.22512792,1.1322842,0.5661341,-0.55587304,-0.5519362,0.88579726,849.7802,859.85345,837.6923,826.8132,818.7546,0.04193115234375,0.20135498046875,0.93939208984375,-1.637420654296875,9.966583251953125,61.23504638671875,1,2.0,1.0,1.0,2.0,38.05
2022-11-19 14:06:11.244,,,,,,,,,,,,,,,,,,,,,,,,,,,,,,,,,,,,,,/muse/elements/blink
2022-11-19 14:06:11.374,1.5265082,1.4471657,1.420441,0.86781454,1.0448872,0.60396683,0.8332923,0.67888945,1.4870073,0.572886,0.6219774,1.199929,0.9991728,-0.43487146,-0.2728751,1.1322842,0.5661341,-0.722987,-0.6312186,0.88579726,811.9048,864.68866,837.28937,776.4469,120.07326,0.0830078125,0.13140869140625,0.9715576171875,2.22808837890625,14.84893798828125,78.82797241210938,1,2.0,1.0,1.0,2.0,38.05
2022-11-19 14:06:12.396,1.5265082,1.2176763,1.1809348,0.86781454,1.0448872,0.46392268,0.7030392,0.67888945,1.4870073,0.5849599,0.64936763,1.199929,0.9991728,-0.262804,-0.32468963,1.1322842,0.5661341,-0.7224309,-0.828051,0.88579726,834.87177,847.3626,847.76556,828.022,466.5934,0.0838623046875,0.220703125,0.9222412109375,6.220703125,2.99072265625,5.809478759765625,1,2.0,1.0,1.0,2.0,38.05
2022-11-19 14:06:13.401,1.156768,0.9746534,0.62759906,0.86781454,1.0417268,0.1923903,0.090657845,0.67888945,1.2726806,0.2914204,0.42769602,1.199929,0.44753405,-0.38246116,-0.58523506,1.1322842,0.0632295,-0.8003761,-0.9112916,0.88579726,815.12823,845.34796,858.24176,808.2784,620.5128,0.07098388671875,0.18060302734375,0.9891357421875,5.27862548828125,12.897491455078125,46.8048095703125,1,1.0,1.0,1.0,1.0,38.05
2022-11-19 14:06:13.673,,,,,,,,,,,,,,,,,,,,,,,,,,,,,,,,,,,,,,/muse/elements/blink
2022-11-19 14:06:14.425,0.67336863,0.92072225,1.0723583,1.1325073,0.47477278,0.14123203,0.47711146,0.7260126,1.2572062,0.19939256,0.15606622,1.2158276,0.48582757,-0.321204,-0.31674775,0.8493531,0.05789871,-0.8004674,-0.7812267,0.22867398,834.0659,858.6447,848.1685,808.68134,800.2198,0.09063720703125,0.21234130859375,0.9500732421875,-2.46734619140625,5.704803466796875,29.78759765625,1,1.0,1.0,1.0,1.0,38.05
2022-11-19 14:06:15.215,,,,,,,,,,,,,,,,,,,,,,,,,,,,,,,,,,,,,,/muse/elements/blink
2022-11-19 14:06:15.435,0.6411889,1.0361917,1.1538436,1.349446,0.39920026,0.30605686,0.65837675,0.93203694,1.24494,0.4441314,0.45029524,1.3027784,0.48524705,-0.24748841,-0.2674302,0.8263883,0.039886184,-0.6296029,-0.65131056,0.4340541,809.4872,849.7802,849.7802,789.7436,511.3187,0.068603515625,0.08978271484375,0.96087646484375,-0.874786376953125,8.830108642578125,5.510406494140625,1,1.0,1.0,1.0,1.0,38.06
2022-11-19 14:06:16.451,0.6411889,0.77151597,0.10319971,1.349446,0.39920026,-0.20500953,-0.004924947,0.93203694,1.24494,0.2801582,0.2885374,1.3027784,0.48524705,-0.40578187,-0.4478187,0.8263883,0.039886184,-0.5792757,-0.5612281,0.4340541,856.2271,841.31866,852.6007,856.2271,815.5311,0.078369140625,0.2987060546875,1.08868408203125,-3.87298583984375,4.0374755859375,50.206756591796875,1,1.0,1.0,1.0,1.0,38.06
2022-11-19 14:06:17.464,1.2417165,1.0435164,1.1165717,1.349446,1.1620178,0.5016903,1.028379,0.93203694,1.3577952,0.3576539,0.31362098,1.3027784,0.856289,-0.31530306,-0.14952736,0.8263883,0.67886484,-0.51807696,-0.45160326,0.4340541,839.304,844.94507,842.1245,850.989,1039.9634,0.22344970703125,0.14654541015625,0.96514892578125,4.53094482421875,0.500946044921875,13.218994140625,1,1.0,1.0,1.0,1.0,38.06
2022-11-19 14:06:18.476,1.1546518,0.9134654,0.9811746,1.4175941,1.1329587,0.40708184,0.8784894,1.3291368,1.390626,0.37286842,0.3034532,1.5772707,0.59627545,-0.21617831,-0.13903022,1.3177029,0.31584433,-0.8139246,-0.6152178,0.6432558,834.87177,858.24176,862.674,885.2381,1014.57874,0.28448486328125,0.08001708984375,0.955322265625,10.504913330078125,-7.64129638671875,12.718048095703125,1,1.0,1.0,1.0,1.0,38.06
2022-11-19 14:06:19.487,0.9145397,0.49277255,0.36646312,1.0296805,0.6511261,0.06093477,0.027248593,0.65403265,1.111642,0.2826077,0.002747341,1.253498,0.38317046,-0.24311388,-0.318294,1.1959679,0.25077093,-0.57669646,-0.5715783,1.0386959,840.9158,851.39197,842.52747,862.674,967.4359,0.48486328125,0.01861572265625,0.90911865234375,-0.95703125,-0.418701171875,18.43780517578125,1,1.0,1.0,1.0,1.0,38.06
2022-11-19 14:06:19.657,,,,,,,,,,,,,,,,,,,,,,,,,,,,,,,,,,,,,,/muse/elements/blink
2022-11-19 14:06:20.510,0.8442848,0.519201,0.32195413,0.9207044,0.82703674,0.27368706,-0.034269046,1.0653081,1.1725514,0.32917583,0.43019372,1.368572,0.5833923,-0.1738999,-0.21729402,1.4085203,0.39843735,-0.3386538,-0.34210533,1.2211437,872.74725,845.7509,863.47986,863.8828,984.7619,0.44537353515625,0.13177490234375,0.8824462890625,-3.641204833984375,-0.276641845703125,-5.495452880859375,1,1.0,1.0,1.0,1.0,38.06
2022-11-19 14:06:21.519,,,,,,,,,,,,,,,,,,,,,,,,,,,,,,,,,,,,,,/muse/elements/jaw_clench
2022-11-19 14:06:21.529,0.905742,0.47566223,0.33362147,0.58613473,0.5510371,0.12803449,0.032353207,1.2803043,0.8605085,0.1244933,0.25669435,1.3356836,0.7040692,-0.21225743,-0.2908232,1.605686,0.42021424,-0.47685322,-0.40672472,1.5008938,813.5165,841.31866,866.30035,782.49084,726.4835,0.39117431640625,0.10394287109375,0.933349609375,-3.461761474609375,12.44140625,-23.80615234375,1,1.0,1.0,1.0,1.0,38.06
2022-11-19 14:06:21.693,,,,,,,,,,,,,,,,,,,,,,,,,,,,,,,,,,,,,,/muse/elements/blink
2022-11-19 14:06:21.693,,,,,,,,,,,,,,,,,,,,,,,,,,,,,,,,,,,,,,/muse/elements/jaw_clench
2022-11-19 14:06:22.544,1.082135,0.4525604,0.72001624,0.58613473,0.96025515,0.28118697,0.4138349,1.2803043,0.9494376,0.38572675,0.42510626,1.3356836,0.7527134,0.02057365,0.4939567,1.605686,0.57734257,-0.12143131,0.69615513,1.5008938,847.76556,847.76556,850.18317,861.4652,854.21246,0.19171142578125,0.2249755859375,0.9619140625,-9.6002197265625,-9.1815185546875,-46.116943359375,1,1.0,1.0,1.0,1.0,38.06
2022-11-19 14:06:23.530,,,,,,,,,,,,,,,,,,,,,,,,,,,,,,,,,,,,,,/muse/elements/blink
2022-11-19 14:06:23.559,1.2305611,0.628771,0.7572196,0.58613473,1.2438288,0.60555303,0.4869041,1.2803043,0.8854866,0.38374406,0.425124,1.3356836,0.7542892,-0.017830268,0.35365206,1.605686,0.72581965,-0.12638004,0.7279489,1.5008938,884.43225,848.1685,861.4652,900.14655,1650.0,0.05517578125,0.12725830078125,0.8726806640625,-34.7222900390625,-8.725433349609375,-87.29171752929688,1,1.0,1.0,1.0,1.0,38.06
2022-11-19 14:06:24.581,1.2305611,0.80061394,1.1547796,0.58613473,1.2438288,0.49161983,0.8365734,1.2803043,0.8854866,-0.06623857,0.4298795,1.3356836,0.7542892,-0.1498615,0.2944253,1.605686,0.72581965,-0.31905705,0.44341037,1.5008938,877.5824,854.21246,851.79486,904.57874,699.89014,0.39471435546875,-0.04901123046875,1.27008056640625,-4.015045166015625,24.06036376953125,4.47113037109375,1,1.0,1.0,1.0,1.0,38.06
2022-11-19 14:06:25.604,1.2305611,0.6500921,0.9352049,0.58613473,1.2438288,0.1600367,0.39767897,1.2803043,0.8854866,0.2709721,0.3133105,1.3356836,0.7542892,-0.16916199,0.1292033,1.605686,0.72581965,-0.27753642,0.3967335,1.5008938,818.7546,853.8095,851.79486,848.1685,710.3663,0.023681640625,0.07568359375,0.9808349609375,-3.78326416015625,4.628143310546875,1.831817626953125,1,2.0,1.0,1.0,2.0,38.08
2022-11-19 14:06:26.497,,,,,,,,,,,,,,,,,,,,,,,,,,,,,,,,,,,,,,/muse/elements/blink
2022-11-19 14:06:26.627,1.2305611,0.4580106,0.6519912,0.58613473,1.2438288,0.26827785,0.27115047,1.2803043,0.8854866,0.30946493,0.21152487,1.3356836,0.7542892,-0.2437796,-0.14271092,1.605686,0.72581965,-0.40276164,-0.0649588,1.5008938,841.7216,854.61536,834.87177,796.5934,779.67035,0.0770263671875,0.14178466796875,0.968017578125,-4.373931884765625,-4.44122314453125,-1.667327880859375,1,2.0,1.0,1.0,2.0,38.08
2022-11-19 14:06:27.639,1.2305611,0.85894823,0.6395626,0.58613473,1.2438288,0.4546568,-0.058514383,1.2803043,0.8854866,0.36417675,0.06734647,1.3356836,0.7542892,-0.19314839,0.24917287,1.605686,0.72581965,-0.20433904,0.32664457,1.5008938,848.1685,851.79486,850.18317,836.4835,842.52747,0.1121826171875,0.103271484375,0.99658203125,-0.366363525390625,2.5421142578125,1.487884521484375,1,2.0,1.0,1.0,2.0,38.08
2022-11-19 14:06:28.668,0.15269986,-0.15250331,0.28019908,0.7626306,0.49862665,-0.35504767,-0.38204372,0.7015856,1.4032872,0.22571024,-0.051170707,1.170593,0.6292772,-0.37039876,0.05886938,1.0733418,0.5674797,-0.4823825,0.2028914,0.9586094,844.1392,855.0183,855.82416,826.4103,919.4872,0.0301513671875,0.12591552734375,0.97412109375,-3.446807861328125,4.194488525390625,4.822540283203125,1,1.0,1.0,1.0,1.0,38.08
2022-11-19 14:06:29.692,0.2480624,-0.0025092901,-0.061236724,0.40329286,0.26360783,-0.58777815,-0.51302624,0.42646113,0.8095754,-0.270283,-0.099752605,1.0487369,0.23644324,-0.3512296,0.20803787,1.0453495,6.7073194E-4,-0.42156103,0.33192942,1.2150301,839.304,860.2564,838.9011,841.31866,906.1905,0.0478515625,0.12738037109375,0.99798583984375,-0.082244873046875,-3.386993408203125,14.811553955078125,1,1.0,1.0,1.0,1.0,38.08
2022-11-19 14:06:30.715,1.0148777,0.7797397,0.44269145,0.7437857,0.5534998,0.18218723,-0.050462384,0.6887362,1.0914285,0.3168673,0.38640592,1.3974221,0.5083477,-0.35979265,0.012731235,1.0927107,0.07989374,-0.6078362,0.05588731,1.1673558,836.4835,855.82416,834.0659,845.34796,756.30035,0.0902099609375,0.1492919921875,0.974853515625,-3.27484130859375,5.540313720703125,7.58148193359375,1,1.0,1.0,1.0,1.0,38.08
2022-11-19 14:06:30.720,,,,,,,,,,,,,,,,,,,,,,,,,,,,,,,,,,,,,,/muse/elements/blink
2022-11-19 14:06:31.512,,,,,,,,,,,,,,,,,,,,,,,,,,,,,,,,,,,,,,/muse/elements/blink
2022-11-19 14:06:31.737,1.3915576,1.0431536,0.9943321,0.93377054,0.8286683,0.60518956,0.55168384,0.6869629,1.0740129,0.44023368,0.4803081,1.3882991,0.76244414,-0.20948867,0.21376236,1.1788076,0.29057175,-0.45323652,0.2730418,1.0677345,836.8865,850.989,849.7802,869.92676,981.13556,-0.0869140625,0.18682861328125,1.0521240234375,-9.338531494140625,-5.7421875,14.1461181640625,1,1.0,1.0,1.0,1.0,38.08
2022-11-19 14:06:32.761,1.3915576,0.500654,0.37112868,0.93377054,0.8286683,-0.063277006,0.18807748,0.6869629,1.0740129,0.17345788,0.36728582,1.3882991,0.76244414,-0.42050555,0.022767216,1.1788076,0.29057175,-0.60201645,0.093801,1.0677345,867.50916,855.82416,842.1245,820.3663,781.28204,0.09368896484375,0.20947265625,0.978271484375,7.34222412109375,-1.099090576171875,-23.948211669921875,1,1.0,1.0,1.0,1.0,38.08
2022-11-19 14:06:33.784,0.93585354,0.46071658,0.46536756,1.2804009,0.6719884,-0.10911903,-0.030228563,1.0811254,1.4182758,-0.09463658,0.41473004,1.8366671,1.0079653,-0.34780496,-0.20021771,1.3612728,0.6442869,-0.47840935,-0.2958043,1.0109957,825.2015,844.1392,850.58606,844.94507,979.92676,0.1041259765625,0.20867919921875,0.93475341796875,-7.3272705078125,2.086029052734375,8.23944091796875,1,1.0,1.0,1.0,1.0,38.08
2022-11-19 14:06:33.889,,,,,,,,,,,,,,,,,,,,,,,,,,,,,,,,,,,,,,/muse/elements/blink
2022-11-19 14:06:34.358,,,,,,,,,,,,,,,,,,,,,,,,,,,,,,,,,,,,,,/muse/elements/jaw_clench
2022-11-19 14:06:34.807,0.8478828,0.14393686,0.62527,1.2804009,0.48859295,-0.054112032,0.20974827,1.0811254,1.3230462,0.49391848,0.43062115,1.8366671,1.2813668,0.1017892,-0.21074316,1.3612728,0.97410226,0.024461232,-0.45570776,1.0109957,805.05493,864.68866,841.31866,859.45056,824.7985,0.17034912109375,0.26385498046875,1.0130615234375,1.966400146484375,10.15350341796875,-9.49554443359375,1,1.0,1.0,1.0,1.0,38.08
2022-11-19 14:06:35.793,,,,,,,,,,,,,,,,,,,,,,,,,,,,,,,,,,,,,,/muse/elements/blink
2022-11-19 14:06:35.820,0.76896524,0.50948226,0.47379413,1.2804009,0.43957183,0.2297174,0.41539598,1.0811254,1.235532,0.5560389,0.44007745,1.8366671,1.3076187,0.36211368,-0.07133957,1.3612728,1.0433358,0.06314453,-0.39310372,1.0109957,851.79486,856.63007,843.3333,862.27106,956.55676,0.167236328125,0.26629638671875,0.95989990234375,-3.506622314453125,-17.09197998046875,10.18341064453125,1,1.0,1.0,1.0,1.0,38.09
2022-11-19 14:06:36.852,0.76896524,1.0379108,1.0042967,1.2804009,0.43957183,0.48405892,0.6237093,1.0811254,1.235532,0.6847407,0.35076016,1.8366671,1.3076187,0.10602521,-0.37847993,1.3612728,1.0433358,-0.34419835,-0.6238956,1.0109957,844.5421,858.6447,850.58606,827.2161,699.0842,0.080078125,0.156005859375,1.00433349609375,-1.637420654296875,12.149810791015625,13.56292724609375,1,2.0,1.0,1.0,2.0,38.09
2022-11-19 14:06:37.873,0.76896524,0.49411172,0.4980054,1.2804009,0.43957183,0.24754272,0.031813286,1.0811254,1.235532,0.669169,0.2175029,1.8366671,1.3076187,-0.030581808,-0.420906,1.3612728,1.0433358,-0.6199412,-0.70465034,1.0109957,828.8278,859.85345,855.42126,837.6923,674.90845,-0.03753662109375,0.15753173828125,0.96588134765625,-5.2935791015625,0.777587890625,4.882354736328125,1,2.0,1.0,1.0,2.0,38.09
2022-11-19 14:06:38.879,0.8592215,0.27789497,0.16204403,1.1725116,0.63895416,0.12583598,-0.3526477,0.7934083,1.4631033,0.1890006,0.30850968,1.4214842,0.66418654,-0.25813234,-0.4062812,1.022718,0.6198555,-0.48610008,-0.58603066,0.8233607,842.1245,850.989,844.94507,821.5751,751.8681,-0.0618896484375,0.1630859375,0.95086669921875,-3.70849609375,3.566436767578125,6.287994384765625,1,1.0,1.0,1.0,1.0,38.09
2022-11-19 14:06:39.901,0.8661749,0.47259584,0.14198504,0.87787056,0.28113905,0.040643092,-0.301852,0.5155273,1.218589,-0.012704123,0.28932413,1.4342736,0.5392352,-0.27152798,-0.31699973,1.149149,0.5745651,-0.39932063,-0.50361425,0.840858,824.7985,854.61536,855.82416,791.75824,85.01832,-0.13946533203125,0.144287109375,1.0687255859375,-1.7047119140625,4.2169189453125,-4.284210205078125,1,1.0,1.0,1.0,1.0,38.09
2022-11-19 14:06:40.922,0.9627507,0.39879352,-0.06379796,0.9678412,0.5117624,-0.010207285,-0.4002744,0.7377595,0.73413706,-0.10750338,0.15063782,1.421563,0.40860885,-0.2971644,-0.13021876,1.1543932,0.3746349,-0.3861755,-0.25498798,0.808475,840.5128,850.989,842.52747,824.3956,861.8681,-0.03997802734375,0.11688232421875,0.98065185546875,-1.517791748046875,-0.40374755859375,-2.3028564453125,1,1.0,1.0,1.0,1.0,38.09
2022-11-19 14:06:41.928,0.82284194,0.09284615,0.053457316,1.1240005,0.5991792,-0.25891072,-0.2770459,0.9454761,0.70509464,-0.022414165,0.33470076,1.267165,0.5846236,-0.30728817,0.5347833,1.0084094,0.6687239,-0.32410294,0.7197502,0.7717999,841.31866,851.39197,867.1062,863.0769,869.5238,0.03717041015625,0.18359375,0.99945068359375,-1.45050048828125,-0.55328369140625,-1.218719482421875,1,1.0,1.0,1.0,1.0,38.09
2022-11-19 14:06:42.950,0.5270644,0.096054144,0.24173489,1.1240005,0.33737573,-0.4106282,-0.31231385,0.9454761,0.3866134,-0.110768065,0.3962841,1.267165,0.519323,-0.1169792,0.5091784,1.0084094,0.70946133,-0.21705464,0.7513628,0.7717999,824.7985,846.9597,862.27106,811.50183,842.52747,0.05255126953125,0.14080810546875,1.12493896484375,-0.22430419921875,-10.81146240234375,-0.94207763671875,1,1.0,1.0,1.0,1.0,38.09
2022-11-19 14:06:43.967,0.6091634,0.44715342,0.32237625,0.51661575,0.15189095,-0.16150944,-0.21939391,0.77127194,0.59431285,0.01171228,0.013602088,1.114577,0.72727793,-0.18149546,-0.11317248,0.9898773,0.4726596,-0.75021464,-0.16364557,0.8889717,818.7546,851.39197,866.7033,762.74725,863.8828,-0.05047607421875,0.15771484375,0.97369384765625,-2.49725341796875,0.418701171875,0.949554443359375,1,1.0,1.0,1.0,1.0,38.09
2022-11-19 14:06:44.976,0.7762294,0.3174769,0.21910273,0.6867655,0.42320687,-0.16021185,-0.27174014,0.7003187,0.29876024,0.04331734,0.16219045,1.0137483,0.44097233,-0.29683995,0.27666217,0.9307647,0.40942684,-0.4975009,0.47502533,0.8303335,811.9048,849.7802,859.45056,838.9011,945.6777,-0.012939453125,0.16094970703125,0.99530029296875,-2.1234130859375,1.973876953125,1.398162841796875,1,1.0,1.0,1.0,1.0,38.09
2022-11-19 14:06:45.652,,,,,,,,,,,,,,,,,,,,,,,,,,,,,,,,,,,,,,/muse/elements/blink
2022-11-19 14:06:45.952,,,,,,,,,,,,,,,,,,,,,,,,,,,,,,,,,,,,,,/muse/elements/jaw_clench
2022-11-19 14:06:45.984,1.0283074,0.1640975,0.27654052,0.6867655,0.5958841,-0.041764244,0.041602228,0.7003187,0.7282928,0.3729071,0.43249732,1.0137483,0.60275614,-0.1638613,0.12985647,0.9307647,0.3056036,-0.6328237,0.31214568,0.8303335,829.6337,862.27106,846.1539,833.2601,909.41394,-0.01190185546875,0.1568603515625,0.9857177734375,-2.639312744140625,0.605621337890625,1.428070068359375,1,1.0,1.0,1.0,1.0,38.11
2022-11-19 14:06:46.989,1.0283074,1.0349953,0.19761132,0.5348973,0.5958841,0.2794078,0.1623984,1.1443666,0.7282928,0.85497075,0.35704932,1.1919967,0.60275614,0.07972478,0.12337532,1.2465166,0.3056036,-0.36898327,-0.08648814,0.92339396,833.663,853.8095,848.1685,865.89746,938.022,-0.01312255859375,0.15924072265625,0.9871826171875,-1.79443359375,1.846771240234375,1.637420654296875,1,1.0,1.0,1.0,1.0,38.11
2022-11-19 14:06:47.999,0.8446915,1.16126,0.5931618,1.2834393,0.6200267,0.26972842,-0.1840507,0.91804475,1.3900377,0.8343553,-0.22332482,1.1080251,0.6121082,0.023558801,-0.090092294,0.8992031,0.17431688,-0.5935884,-0.4918485,0.49000368,828.8278,851.79486,850.989,856.63007,897.326,-0.0174560546875,0.16265869140625,0.98040771484375,-2.64678955078125,2.4822998046875,1.42059326171875,1,1.0,1.0,1.0,1.0,38.11
2022-11-19 14:06:49.002,1.0384439,0.5029867,0.4735267,1.1604176,0.69841707,-0.36370382,-0.1660713,0.81038636,1.4207419,0.19490926,-0.10251947,1.1651152,0.44769344,-0.3338476,-0.17132732,0.807041,0.2359454,-0.7210502,-0.5738077,0.47696283,837.28937,850.18317,854.21246,853.4066,809.4872,-0.0142822265625,0.162841796875,0.9931640625,-2.654266357421875,1.622467041015625,0.545806884765625,1,1.0,1.0,1.0,1.0,38.11
2022-11-19 14:06:50.006,1.3000547,-0.30073655,-0.11954924,1.1569078,0.88966966,-0.44501472,-0.16843094,0.92481613,1.0911186,0.029219052,-0.24627781,1.1055079,0.69616145,-0.4297665,-0.33944103,0.83960503,0.6233709,-0.6171643,-0.56840664,0.67169553,829.6337,840.9158,846.1539,869.12085,919.4872,0.00128173828125,0.17193603515625,0.98602294921875,-2.03369140625,1.697235107421875,0.538330078125,1,1.0,1.0,1.0,1.0,38.11
2022-11-19 14:06:51.015,0.6837412,-0.13190266,-0.16992852,1.1044551,0.72023106,-0.20630373,-0.22559482,1.1152176,0.9409222,-0.015433706,0.14635915,1.0925417,0.8305132,-0.29155293,0.08692348,1.1255966,0.8396508,-0.33910242,0.55172795,1.210509,846.9597,856.2271,831.2454,879.19415,919.89014,0.01251220703125,0.17083740234375,0.9820556640625,-2.115936279296875,3.170166015625,1.18133544921875,1,1.0,1.0,1.0,1.0,38.11
2022-11-19 14:06:52.052,0.34497944,-0.20569669,-0.47543055,0.27813008,0.50938904,-0.317487,-0.41427585,0.34594554,0.5479255,-0.0017994795,0.1724976,1.0294015,0.43410906,-0.2524977,0.13762909,1.0225353,0.4925306,-0.43244916,0.5183597,1.0569623,830.0366,849.3773,842.9304,842.1245,879.59705,0.01800537109375,0.177978515625,0.9715576171875,-3.117828369140625,1.18133544921875,2.699127197265625,1,1.0,1.0,1.0,1.0,38.11
2022-11-19 14:06:53.075,0.5445495,-0.1692318,-0.7167977,0.6130118,0.3892906,-0.33726802,-0.40625516,0.45860356,1.0819079,-0.18045218,-0.13072535,1.0411168,0.41138762,-0.3906279,-0.20123559,0.77096033,-0.06554019,-0.7011438,-0.39004344,0.6919942,832.8571,850.989,849.7802,855.0183,938.022,0.0257568359375,0.1749267578125,0.99725341796875,-2.968292236328125,0.59814453125,-0.201873779296875,1,1.0,1.0,1.0,1.0,38.11
2022-11-19 14:06:54.097,0.76130503,-0.1165283,-0.17995322,0.7655567,0.66263413,-0.2816982,-0.36159402,0.37040433,1.1244355,-0.18959737,-0.18619132,1.0051945,0.43483043,-0.38862696,-0.33912888,0.6728446,0.009002523,-0.6812202,-0.56613725,0.61327964,845.7509,852.1978,852.1978,839.707,888.86444,0.01617431640625,0.18511962890625,1.00335693359375,2.093505859375,1.734619140625,-0.8673095703125,1,1.0,1.0,1.0,1.0,38.11
2022-11-19 14:06:55.103,0.47231546,0.45177925,-0.010256296,0.3805536,0.2022344,-0.00544471,-0.3673353,-0.02835616,0.58047134,0.39104366,-0.22692254,0.44059807,0.09989623,-0.12446315,-0.55202633,0.39840636,0.023169223,-0.6401565,-0.81004465,0.3109443,787.72894,804.65204,812.3077,801.4286,783.69965,-5.4931640625E-4,0.17578125,0.96343994140625,-1.12152099609375,9.0020751953125,-2.8411865234375,1,1.0,1.0,1.0,1.0,38.13
2022-11-19 14:06:56.124,0.19393854,0.663251,0.006743404,0.12771314,-0.25163662,0.16417328,-0.24925594,0.06494668,-0.096981876,0.39104366,-0.4278543,0.34675834,0.17227796,-0.05592124,-0.7402584,0.32917058,0.13479671,-0.65433645,-0.98373616,0.20485666,835.2747,856.2271,836.08057,833.2601,832.8571,0.00433349609375,0.18212890625,0.97821044921875,-3.342132568359375,-0.142059326171875,-0.844879150390625,1,1.0,1.0,1.0,1.0,38.13
2022-11-19 14:06:57.130,0.19393854,1.0237308,0.93995744,0.48075613,-0.25163662,0.43525636,0.5041312,0.20663682,-0.096981876,0.07481223,0.36207554,0.69010276,0.17227796,-0.24066639,-0.46827865,0.7494626,0.13479671,-0.57093245,-0.77612036,0.20549694,819.5604,853.8095,888.46155,840.10986,778.46155,0.01348876953125,0.1722412109375,1.01318359375,-2.4822998046875,-3.745880126953125,2.250518798828125,1,1.0,1.0,1.0,1.0,38.13
2022-11-19 14:06:58.152,1.0316075,0.9329143,0.9671908,0.5245994,0.6114263,0.51151395,0.60155123,0.3371519,1.3971115,0.18661144,0.33619943,1.469004,0.8587512,-0.034616567,-0.5023992,1.3833196,0.37195042,-0.17142428,-0.81130266,0.61144555,856.63007,848.97437,845.7509,839.707,813.91943,-0.01751708984375,0.1531982421875,0.96160888671875,-4.71038818359375,8.187103271484375,3.99261474609375,1,1.0,1.0,1.0,1.0,38.13
2022-11-19 14:06:58.622,,,,,,,,,,,,,,,,,,,,,,,,,,,,,,,,,,,,,,/muse/elements/blink
2022-11-19 14:06:59.162,0.8800287,0.9041802,0.5659878,0.48724827,0.39314514,0.10497955,-0.21217719,0.34552017,1.1438313,0.2702317,0.15993632,1.4071755,0.7755805,-0.12982056,-0.38177097,1.3271326,0.31920308,-0.37592372,-0.30397153,0.57079196,845.7509,880.80585,850.989,866.7033,801.02563,0.00299072265625,0.1605224609375,0.97711181640625,-2.79632568359375,4.867401123046875,-0.299072265625,1,1.0,1.0,1.0,1.0,38.13
2022-11-19 14:07:00.009,,,,,,,,,,,,,,,,,,,,,,,,,,,,,,,,,,,,,,/muse/elements/jaw_clench
2022-11-19 14:07:00.165,0.6458964,1.2186439,0.70327884,0.40025997,0.43708068,-0.28159964,0.10750744,0.18323971,1.1027998,0.17978139,-0.19634245,1.0255302,0.79951686,-0.22608477,-0.41324973,1.2496296,0.3105838,-0.47504234,-0.30643022,0.5793691,845.7509,846.55676,782.8938,816.7399,805.8608,-0.03070068359375,0.12847900390625,0.95013427734375,-7.955322265625,6.759033203125,0.605621337890625,1,1.0,1.0,1.0,1.0,38.13
2022-11-19 14:07:01.188,0.6458964,1.3081673,0.71203214,0.40025997,0.43708068,-0.6865362,0.22382283,0.18323971,1.1027998,-0.29963738,-0.24584466,1.0255302,0.79951686,-0.3143482,-0.4638166,1.2496296,0.3105838,-0.5056307,-0.5407981,0.5793691,836.8865,878.3883,851.79486,814.7253,819.5604,0.04168701171875,0.139892578125,0.989990234375,-1.906585693359375,0.964508056640625,1.7047119140625,1,2.0,1.0,1.0,2.0,38.13
2022-11-19 14:07:02.210,0.6458964,1.3299955,0.47801724,1.0741142,0.43708068,1.1914675,0.058824833,0.48415035,1.1027998,0.7204253,0.17018318,0.53847486,0.79951686,0.020022923,-0.6372779,0.6634666,0.3105838,-0.52958846,-0.64333946,0.675729,865.89746,880.0,840.10986,860.65936,774.43225,0.0225830078125,0.16387939453125,0.98779296875,-2.6617431640625,1.42059326171875,-0.1495361328125,1,1.0,1.0,1.0,1.0,38.13
2022-11-19 14:07:03.214,1.2282985,1.2065868,0.891622,0.9438724,1.0955938,1.0508711,0.48683488,0.8897858,1.4520606,0.7061015,0.32842758,1.1341888,0.5157406,0.055471484,-0.24712059,1.1631688,0.43674025,-0.6314311,0.12799363,1.3013005,817.5458,823.5897,855.42126,758.315,809.89014,0.0157470703125,0.16015625,0.98016357421875,-2.803802490234375,3.21502685546875,1.3458251953125,1,1.0,1.0,1.0,1.0,38.13
2022-11-19 14:07:04.238,1.3322024,0.95880127,0.97449493,1.071178,1.2193197,0.14005415,0.16332258,1.0398568,1.4506681,0.18996568,0.22475618,1.1939316,0.60283625,-0.1261635,0.41050696,1.300566,0.44312602,-0.0028398272,0.5795663,1.491308,838.49817,828.4249,831.2454,807.47253,794.9817,0.02685546875,0.1650390625,0.98370361328125,-2.0635986328125,1.517791748046875,1.27105712890625,1,1.0,1.0,1.0,1.0,38.13
2022-11-19 14:07:05.244,0.6349311,0.7064107,0.8526609,1.1492145,0.64724284,0.27090114,0.3523567,1.0630116,0.6708703,0.21942835,0.6085622,1.1939316,0.6719406,-0.14937453,0.5513799,1.3078532,0.80557084,-0.09464416,0.6453769,1.4738533,869.5238,840.10986,828.8278,917.47253,914.65204,0.03106689453125,0.16778564453125,0.98095703125,-1.876678466796875,0.456085205078125,0.904693603515625,1,1.0,1.0,1.0,1.0,38.13
2022-11-19 14:07:06.251,0.73189265,0.5160843,0.65317285,0.79278266,0.4900638,0.18277991,0.47318664,0.51410896,0.6058129,-0.14313087,0.59187084,0.7505674,0.5307162,-0.12895104,0.46624058,1.2675617,0.7814137,-0.2775766,0.70122176,1.4291886,858.6447,868.71796,820.7692,828.4249,896.52014,0.02850341796875,0.1737060546875,0.9857177734375,-1.906585693359375,1.592559814453125,1.8841552734375,1,1.0,1.0,1.0,1.0,38.13
2022-11-19 14:07:07.260,0.40651977,0.3080528,1.0516261,0.79278266,0.60503894,-0.50425744,0.50661284,0.51410896,0.68700343,-0.58837134,0.47368705,0.7505674,0.37856975,-0.19533296,0.024313143,1.2675617,0.29602534,-0.44928116,0.18952306,1.4291886,847.3626,855.0183,848.1685,841.31866,828.8278,0.00494384765625,0.14959716796875,0.98199462890625,-5.271148681640625,2.37762451171875,2.041168212890625,1,1.0,1.0,1.0,1.0,38.13
2022-11-19 14:07:08.279,0.565579,0.39459196,0.79755217,0.77732915,0.6492403,-0.0021945976,0.26862094,0.3623785,0.8117308,0.055568814,0.7082568,0.6954375,0.6699229,-0.37543777,-0.26052478,0.83285344,0.7298093,-0.621575,-0.6822453,1.1703328,828.8278,859.85345,879.19415,834.0659,893.69965,0.03533935546875,0.17987060546875,0.984130859375,-2.85614013671875,0.022430419921875,0.58319091796875,1,1.0,1.0,1.0,1.0,38.13
2022-11-19 14:07:09.299,0.534311,0.7981154,0.79291445,0.6539918,0.6462313,0.3107074,0.35058528,0.72870713,0.7588177,0.36354974,0.706135,0.72392786,0.75182736,-0.2557059,-0.060305543,0.8304756,0.8271097,-0.525303,-0.7484525,1.1094959,844.94507,900.54944,853.8095,826.0073,861.06226,0.01861572265625,0.17596435546875,0.9837646484375,-2.355194091796875,1.03179931640625,1.502838134765625,1,1.0,1.0,1.0,1.0,38.13
2022-11-19 14:07:10.306,0.65802395,0.7163533,1.2062706,0.65032464,0.8708604,0.2346344,0.1731331,0.8250481,0.6769135,0.091307014,0.30720404,0.53432345,0.7945627,-0.075005755,-0.32057416,1.0324858,0.9140139,-0.37553164,-0.42590007,1.2488735,896.1172,872.74725,830.0366,894.10254,901.3553,0.002197265625,0.17779541015625,0.98504638671875,-2.115936279296875,0.46356201171875,0.01495361328125,1,1.0,1.0,1.0,1.0,38.13
2022-11-19 14:07:11.327,0.65802395,0.8375291,0.920507,0.6470108,0.8708604,0.35718435,0.31922767,0.67620856,0.6769135,0.28632107,0.3418657,0.43834814,0.7945627,0.08096614,-0.23900358,1.1092316,0.9140139,0.10085484,-0.46901482,1.2774264,785.31134,831.2454,827.619,875.9707,917.0696,-0.03424072265625,0.24560546875,0.9693603515625,6.631927490234375,0.785064697265625,-1.39068603515625,1,1.0,1.0,1.0,1.0,38.13
2022-11-19 14:07:12.349,0.98702973,0.8557859,0.7403823,1.0147281,0.90212107,0.32730395,0.0718928,0.5107198,0.79609126,0.18800879,0.2378568,1.1515504,1.061485,0.19528116,-0.20589207,1.0864406,0.7769531,0.32842854,-0.599815,0.6854991,836.4835,892.0879,847.76556,844.94507,949.304,0.01220703125,0.21026611328125,0.98431396484375,-3.45428466796875,-0.88226318359375,-3.00567626953125,1,1.0,1.0,1.0,1.0,38.13
2022-11-19 14:07:13.124,,,,,,,,,,,,,,,,,,,,,,,,,,,,,,,,,,,,,,/muse/elements/blink
2022-11-19 14:07:13.371,0.98702973,0.7553177,1.2701408,0.80909187,0.90212107,0.11485231,0.33476922,0.5873378,0.79609126,-0.03811868,0.18406309,1.4411947,1.061485,0.0808991,-0.2606051,0.91683936,0.7769531,0.28127214,-0.7888428,0.48137838,846.55676,904.9817,853.00366,859.85345,952.1245,0.00799560546875,0.186279296875,0.98712158203125,-2.3028564453125,1.15142822265625,0.142059326171875,1,1.0,1.0,1.0,1.0,38.13
2022-11-19 14:07:14.379,0.98702973,0.7553177,1.4598951,0.14221804,0.90212107,0.11485231,0.7670094,0.5146014,0.79609126,-0.03811868,0.2667042,1.4265038,1.061485,0.0808991,-0.17147441,0.90384877,0.7769531,0.28127214,-0.52158356,0.2714769,850.58606,838.9011,833.2601,872.3443,983.1502,0.00146484375,0.18365478515625,0.96221923828125,-5.091705322265625,3.529052734375,2.310333251953125,1,1.0,1.0,1.0,1.0,38.13
2022-11-19 14:07:15.400,1.3374113,0.8449232,0.6214144,0.4584711,0.9543631,0.29233542,-0.15987186,0.68450737,1.1122239,-0.14927611,0.035922643,0.85576904,0.68325967,-0.35018724,-0.47708115,0.66452783,0.41131923,-0.8369087,-0.6277342,0.45109794,826.0073,864.2857,847.76556,842.52747,899.34064,-0.0164794921875,0.166015625,0.98553466796875,1.772003173828125,0.43365478515625,0.530853271484375,1,1.0,1.0,1.0,1.0,38.14
2022-11-19 14:07:16.439,1.4149085,0.6370756,0.21283518,0.4584711,1.0007223,0.14931609,-0.17671613,0.68450737,1.0889939,-0.040505305,0.20897616,0.85576904,0.65580195,-0.48421228,-0.4134224,0.66452783,0.40749258,-0.74892485,-0.8211183,0.45109794,834.4689,870.7326,842.52747,841.31866,817.1429,-0.1346435546875,0.18963623046875,0.97772216796875,-4.44122314453125,1.495361328125,6.123504638671875,1,1.0,1.0,1.0,1.0,38.14
2022-11-19 14:07:16.861,,,,,,,,,,,,,,,,,,,,,,,,,,,,,,,,,,,,,,/muse/elements/blink
2022-11-19 14:07:17.461,1.4149085,0.7490969,0.527796,0.39119634,1.0007223,0.51825964,0.01735312,0.13890338,1.0889939,0.61955005,-0.051780086,0.7825418,0.65580195,-0.19332105,-0.19481388,0.60568124,0.40749258,-0.2755042,-0.27953863,0.7436704,839.707,866.7033,854.21246,857.8388,964.21246,-0.0419921875,0.14398193359375,0.9931640625,-6.826324462890625,-1.024322509765625,0.306549072265625,1,1.0,1.0,1.0,1.0,38.14
2022-11-19 14:07:18.483,0.62862897,0.91643906,0.58925945,0.54589784,-0.07631038,0.59180945,0.025720423,0.1157842,0.38719314,0.6274842,-0.11182579,0.25926661,0.3495878,-0.13563389,-0.4765094,0.2491423,0.16445869,-0.6889076,-0.6713899,-0.0022095477,850.18317,874.35895,853.8095,844.5421,838.0952,0.01080322265625,0.16131591796875,0.9859619140625,1.7047119140625,-0.919647216796875,-0.059814453125,1,1.0,1.0,1.0,1.0,38.14
2022-11-19 14:07:19.509,0.48545152,0.041457273,0.024696045,0.3077406,-0.08559242,-0.47693127,-0.54337484,-0.003516695,0.43756482,-0.35197023,-0.4138639,0.48774004,0.13706523,-0.63169855,-0.59764045,0.19148754,0.057141084,-0.90729165,-0.86277354,-0.09722066,983.95605,865.89746,857.8388,963.00366,832.8571,0.0819091796875,0.1749267578125,0.99090576171875,-1.57012939453125,-16.890106201171875,-9.510498046875,1,1.0,1.0,1.0,1.0,38.14
2022-11-19 14:07:20.365,,,,,,,,,,,,,,,,,,,,,,,,,,,,,,,,,,,,,,/muse/elements/blink
2022-11-19 14:07:20.528,0.34233382,0.94658685,0.8880479,-0.02001782,-0.3041833,0.698924,0.3573013,-0.021440322,0.21311127,0.6485918,0.38861474,0.39088228,-0.20547828,-0.3871534,-0.32189825,0.18969695,0.01417262,-0.49976268,-0.73936373,-0.053399425,848.5714,869.5238,849.3773,838.9011,807.0696,0.05279541015625,0.16680908203125,0.98492431640625,-0.85235595703125,2.295379638671875,1.36077880859375,1,1.0,1.0,1.0,1.0,38.14
2022-11-19 14:07:21.537,0.39745653,1.0820098,1.0976639,0.010012159,-0.30481058,0.725264,0.5793699,-0.029413756,0.20476067,0.65177727,0.38946998,0.38465822,-0.24479087,-0.32088074,-0.09184336,0.16686828,0.020851623,-0.49093127,-0.4299528,-0.040855106,833.663,837.6923,839.707,821.1722,803.8461,-0.00244140625,0.154052734375,0.98382568359375,-3.9178466796875,6.98333740234375,5.959014892578125,1,1.0,1.0,1.0,1.0,38.14
2022-11-19 14:07:22.540,0.37227046,0.84534484,0.54794294,0.38512835,0.7023939,0.008826219,0.07258586,0.2891138,0.8337566,0.2455759,0.11062111,1.2141148,0.4831031,-0.4752862,-0.6062108,0.4620731,-0.045769814,-0.7960769,-0.8788681,0.26698273,838.9011,848.1685,834.87177,839.304,835.6777,-0.0440673828125,0.16656494140625,1.05133056640625,-2.235565185546875,2.811279296875,1.308441162109375,1,1.0,1.0,1.0,1.0,38.14
2022-11-19 14:07:23.547,0.4995015,0.756649,0.6102652,0.5944991,0.66154224,0.017455274,0.28695482,0.6783214,1.0050296,0.31779438,0.17052111,1.2425339,0.5233443,-0.27602282,-0.1918109,0.7563613,0.36974674,-0.6641876,-0.6284258,0.64913696,838.0952,858.6447,832.0513,828.4249,843.73627,0.01666259765625,0.15582275390625,0.99578857421875,-2.3028564453125,0.231781005859375,0.777587890625,1,1.0,1.0,1.0,1.0,38.14
2022-11-19 14:07:23.751,,,,,,,,,,,,,,,,,,,,,,,,,,,,,,,,,,,,,,/muse/elements/jaw_clench
2022-11-19 14:07:24.020,,,,,,,,,,,,,,,,,,,,,,,,,,,,,,,,,,,,,,/muse/elements/jaw_clench
2022-11-19 14:07:24.568,0.47139803,0.06066513,0.55370533,0.9522697,0.40498167,-0.2926204,0.17271946,0.9369722,0.99541324,0.17208642,0.15388745,1.0533642,0.5154426,-0.15417697,0.36035773,0.7367118,0.59995466,-0.5626141,0.15263344,0.701714,842.52747,853.00366,873.5531,828.8278,743.4066,0.01702880859375,0.162353515625,0.98040771484375,-2.85614013671875,2.624359130859375,0.246734619140625,1,1.0,1.0,1.0,1.0,38.14
2022-11-19 14:07:25.588,0.32520968,0.073090844,1.1137127,0.9522697,0.5799935,-0.060535412,0.5309475,0.9369722,0.8834935,0.21736258,0.16744415,1.0533642,0.44993785,-0.2829653,0.105127245,0.7367118,0.42018002,-0.55214334,0.06827817,0.701714,829.6337,867.1062,862.27106,819.9634,716.0073,0.00927734375,0.16552734375,0.984619140625,-2.76641845703125,1.757049560546875,1.727142333984375,1,1.0,1.0,1.0,1.0,38.16
2022-11-19 14:07:25.695,,,,,,,,,,,,,,,,,,,,,,,,,,,,,,,,,,,,,,/muse/elements/blink
2022-11-19 14:07:26.597,0.45920566,0.5817976,1.4029511,0.9522697,0.56908524,0.09377371,0.24741066,0.9369722,0.24979605,0.02625609,0.05194523,1.0533642,0.20930085,-0.46231532,-0.252236,0.7367118,-0.018752558,-0.78705424,-0.2401119,0.701714,840.5128,855.0183,845.34796,843.73627,902.96704,0.01800537109375,0.1661376953125,0.9908447265625,-2.16827392578125,0.859832763671875,1.742095947265625,1,1.0,1.0,1.0,1.0,38.16
2022-11-19 14:07:27.601,0.7245709,0.38979557,0.6633596,0.53396535,0.63738185,-0.24251767,-0.27747464,0.44391856,0.6313841,-0.19614415,-0.35831752,0.78196293,0.2169623,-0.444969,-0.44225302,0.4767184,0.13139875,-0.6336982,-0.7094752,0.37523335,825.2015,859.85345,855.82416,820.3663,830.4396,-0.03546142578125,0.17547607421875,1.03741455078125,-1.83929443359375,2.9608154296875,-2.205657958984375,1,1.0,1.0,1.0,1.0,38.16
2022-11-19 14:07:28.606,0.9466763,-0.10006306,0.2672604,0.83928126,0.23989838,-0.40196547,-0.29204595,0.12679218,0.6470096,-0.26450077,-0.2475062,0.8361112,0.49569297,-0.33692923,-0.3696648,0.5576726,0.2295083,-0.6541964,-0.89250654,0.34817457,855.42126,888.0586,868.71796,857.03296,885.64105,0.02105712890625,0.1824951171875,0.97625732421875,-1.734619140625,-0.276641845703125,0.829925537109375,1,1.0,1.0,1.0,1.0,38.16
2022-11-19 14:07:29.612,1.113719,0.74000174,0.4948809,1.0318596,0.4822238,0.080791816,-0.006761011,0.3667636,0.6569617,0.21684442,-0.05181023,0.8361112,0.38918397,-0.45969844,-0.3984604,0.54967993,0.023153845,-0.69762707,-0.7610453,0.23295791,842.9304,884.83514,852.1978,852.1978,873.1502,0.05401611328125,0.191162109375,1.000244140625,-2.51220703125,1.9439697265625,0.276641845703125,1,1.0,1.0,1.0,1.0,38.16
2022-11-19 14:07:30.628,0.98055094,1.1978883,0.604173,0.576728,0.77690744,0.38946727,0.118140295,0.4521222,0.54913545,0.3008857,0.02360978,1.215886,0.45923316,-0.32357788,-0.33476675,0.7056505,0.27818054,-0.52244204,-0.51372236,0.54467756,823.5897,869.5238,880.0,823.9927,908.20514,0.05645751953125,0.18670654296875,0.99456787109375,-1.3458251953125,0.112152099609375,1.936492919921875,1,1.0,1.0,1.0,1.0,38.16
2022-11-19 14:07:31.657,0.89088637,1.4939252,0.80711764,0.14728981,0.19045097,0.8718752,-0.05665601,0.26998472,0.783977,0.29387748,0.11409161,1.215886,0.7047007,-0.25816146,0.2653467,1.026742,0.34728423,-0.5237396,0.14417197,0.7848609,836.8865,857.8388,861.06226,824.7985,848.97437,0.0526123046875,0.18316650390625,0.9842529296875,-3.282318115234375,1.12152099609375,0.97198486328125,1,1.0,1.0,1.0,1.0,38.16
2022-11-19 14:07:32.665,1.059647,0.55995584,0.4900375,0.5879437,0.25915515,-0.18809652,-0.17082186,0.2916235,0.783977,-0.32602364,0.15183957,0.73024344,0.4632674,-0.39751798,0.32451865,1.0260309,0.22947189,-0.43720302,0.3054843,0.85362333,832.4542,857.4359,858.6447,833.663,883.6264,0.05084228515625,0.18304443359375,0.98199462890625,-2.026214599609375,2.115936279296875,0.6878662109375,1,1.0,1.0,1.0,1.0,38.16
2022-11-19 14:07:33.688,1.1115884,0.5510221,0.33597407,0.5879437,0.64253473,-0.107574,0.023742214,0.2916235,0.7286234,-0.09527056,-0.15024988,0.73024344,0.27195194,-0.36625662,-0.3415008,1.0260309,0.09857049,-0.671424,-0.34045944,0.85362333,842.1245,845.7509,853.4066,847.76556,947.6923,0.04144287109375,0.14715576171875,0.95672607421875,-5.749664306640625,5.061798095703125,1.973876953125,1,1.0,1.0,1.0,1.0,38.16
2022-11-19 14:07:34.701,1.0306386,0.2105062,0.22939563,1.0063685,0.53994787,-0.061221916,-0.12684038,0.40492702,0.77984947,0.15399776,0.042132262,1.0176171,0.41252312,-0.19778056,-0.6579159,0.8764499,0.14727029,-0.62944573,-0.7664364,0.33863845,831.2454,913.8461,889.67035,851.39197,981.13556,0.06512451171875,0.1781005859375,0.980224609375,-2.564544677734375,3.222503662109375,2.758941650390625,1,1.0,1.0,1.0,1.0,38.16
2022-11-19 14:07:35.731,0.44845092,0.102808565,0.7300339,0.5091286,-0.097340256,0.074970014,-0.2380542,0.029389717,0.2796193,0.1349272,-0.052041646,0.73337436,-0.085334554,-0.11228422,-0.7653253,0.43856263,0.07342817,-0.56628835,-0.8822539,0.27213287,823.5897,892.8938,917.47253,830.0366,848.97437,0.01214599609375,0.1607666015625,1.0184326171875,-3.03558349609375,3.03558349609375,-0.55328369140625,1,1.0,1.0,1.0,1.0,38.17
2022-11-19 14:07:36.743,0.8960513,1.0747035,0.91828024,0.91229886,0.30322957,0.028820496,-0.42467874,-0.0214293,0.95725405,0.11476896,-0.20313261,0.540881,0.33364034,-0.30140945,-0.76387733,0.49711677,-0.02509131,-0.8135807,-0.8111457,0.2209374,841.31866,887.25275,875.56775,866.7033,991.6117,0.0101318359375,0.159912109375,1.014404296875,-1.86920166015625,3.207550048828125,1.278533935546875,1,1.0,1.0,1.0,1.0,38.17
2022-11-19 14:07:37.760,0.6285658,1.2110426,0.91828024,1.0520314,0.3044066,0.21532938,-0.42467874,0.36717805,0.8528077,0.10754249,-0.20313261,0.78282243,0.19426195,-0.35028493,-0.76387733,0.48912236,-0.22902037,-0.89776444,-0.8111457,0.25686693,779.2674,816.7399,848.97437,799.81683,923.5165,0.04571533203125,0.15643310546875,0.9908447265625,-1.8841552734375,2.58697509765625,0.231781005859375,1,1.0,1.0,1.0,1.0,38.17
2022-11-19 14:07:38.782,0.20844036,1.2643646,1.155659,1.1311817,0.3247898,0.281622,0.6099553,0.5115057,0.6007243,0.055186328,0.2681854,0.69892955,0.17937504,-0.30830735,0.09582162,0.5652279,-0.15529022,-0.90587604,-0.30702826,0.37443158,854.21246,894.90845,799.81683,870.7326,943.663,0.05633544921875,0.16326904296875,0.9896240234375,-1.89910888671875,1.83929443359375,0.635528564453125,1,1.0,1.0,1.0,1.0,38.17
2022-11-19 14:07:39.803,1.3623483,1.2643646,1.1485072,1.1311817,0.55523616,0.281622,0.67232007,0.5115057,0.4810791,0.055186328,0.26035905,0.69892955,0.8693665,-0.30830735,0.14084019,0.5652279,0.80977714,-0.90587604,-0.26055127,0.37443158,830.4396,860.65936,833.2601,840.9158,896.9231,0.04510498046875,0.15057373046875,0.98980712890625,-2.01873779296875,1.74957275390625,0.76263427734375,1,1.0,1.0,1.0,1.0,38.17
2022-11-19 14:07:40.815,1.2101052,1.0072364,0.4274808,1.1311817,0.6667287,0.11489,-0.2137452,0.5115057,0.6120681,-0.24410139,-0.17041254,0.69892955,0.70648426,-0.31028345,-0.17278841,0.5652279,0.53062373,-0.60557234,0.05420757,0.37443158,828.4249,875.16486,848.97437,842.1245,892.8938,0.0587158203125,0.15777587890625,1.0048828125,-2.4822998046875,2.1234130859375,1.443023681640625,1,1.0,1.0,1.0,1.0,38.17
2022-11-19 14:07:41.600,,,,,,,,,,,,,,,,,,,,,,,,,,,,,,,,,,,,,,/muse/elements/blink
2022-11-19 14:07:41.831,0.87618077,0.8635386,0.29864722,0.75260556,0.5920882,-0.111112274,-0.33468333,0.73690134,0.577645,0.024876157,-0.22185509,1.0964797,0.4354248,-0.3999795,-0.34222755,0.88477784,0.003964516,-0.78584063,-0.28205964,0.7010714,850.989,852.1978,843.3333,829.2308,810.696,0.023193359375,0.13763427734375,0.9957275390625,-3.730926513671875,-0.426177978515625,0.82244873046875,1,1.0,1.0,1.0,1.0,38.17
2022-11-19 14:07:42.546,,,,,,,,,,,,,,,,,,,,,,,,,,,,,,,,,,,,,,/muse/elements/jaw_clench
2022-11-19 14:07:42.854,1.1622072,0.92266536,0.5646189,1.1080811,0.93410504,-0.35054785,0.062891826,1.044394,1.2974297,-0.01687485,-0.058524095,1.1495913,0.50576305,-0.41893783,-0.39252123,1.0127189,0.034257792,-0.8411041,-0.39007154,0.63690454,808.2784,861.06226,859.45056,799.41394,802.23444,0.03570556640625,0.1531982421875,0.99261474609375,-2.16827392578125,2.03369140625,2.10845947265625,1,1.0,1.0,1.0,1.0,38.17
2022-11-19 14:07:43.861,1.1622072,1.2705979,0.6710024,1.3112764,0.93410504,0.36645898,-0.124686554,1.2376765,1.2974297,0.38701567,0.39565915,1.1495913,0.50576305,-0.07267686,0.28123116,1.144686,0.034257792,-0.278999,0.48378447,0.75175965,872.74725,881.2088,870.7326,840.5128,842.9304,0.0289306640625,0.1510009765625,0.9859619140625,-3.028106689453125,2.27294921875,2.16827392578125,1,1.0,1.0,1.0,1.0,38.17
2022-11-19 14:07:44.882,1.1622072,1.15207,0.7255862,0.90642864,0.93410504,0.48772582,0.050700355,0.91716886,1.2974297,0.5206459,0.45858124,1.0967014,0.50576305,-0.047482282,0.2754457,1.0134822,0.034257792,-0.37122208,0.4266338,1.2862892,811.50183,826.0073,846.9597,776.8498,871.13556,0.03192138671875,0.1536865234375,0.97760009765625,-2.639312744140625,2.16827392578125,1.457977294921875,1,1.0,1.0,1.0,1.0,38.17
2022-11-19 14:07:45.905,1.1644973,1.1196548,1.1100892,0.78029114,0.40366107,0.33875668,0.35740468,0.6949599,0.5697919,0.39007813,-0.27570647,0.958091,0.27501598,0.07897344,0.01870773,0.8983831,0.05514477,-0.10028528,0.13373162,1.1998508,839.304,844.1392,855.0183,823.5897,838.49817,0.031005859375,0.1563720703125,0.9847412109375,-2.355194091796875,2.392578125,1.42059326171875,1,1.0,1.0,1.0,1.0,38.17
2022-11-19 14:07:46.927,0.8546387,0.89308524,0.6892791,0.41593644,-0.011336603,0.06506649,-0.044544194,0.090639904,0.55801165,0.27347273,-0.1424074,0.42758963,0.1141638,0.21634756,-0.0567162,0.880156,-0.0287412,0.08913803,0.035380367,0.7557687,825.2015,847.3626,836.8865,808.2784,863.8828,0.027099609375,0.161376953125,0.9912109375,-1.30096435546875,2.43743896484375,2.213134765625,1,1.0,1.0,1.0,1.0,38.17
2022-11-19 14:07:47.233,,,,,,,,,,,,,,,,,,,,,,,,,,,,,,,,,,,,,,/muse/elements/blink
2022-11-19 14:07:47.934,0.4681522,1.1424193,0.6294936,0.4468221,-0.6105044,0.26012015,-0.3962705,-0.21880022,-0.010698306,0.2136087,-0.38578096,0.20460075,0.084534414,0.07161596,-0.23827796,0.865707,-0.06781042,-0.06235572,-0.21983607,0.7295842,844.5421,856.2271,882.01465,828.4249,903.36993,0.0242919921875,0.16107177734375,0.9940185546875,-1.1663818359375,3.641204833984375,1.143951416015625,1,1.0,1.0,1.0,1.0,38.17
2022-11-19 14:07:48.956,0.527323,1.1305549,1.494819,0.57026505,-0.6081156,0.3733038,0.6315561,-0.19477217,-0.06676139,0.23206896,-0.059877064,-0.10771016,0.06885197,-0.13035944,-0.39790493,0.81479144,-0.07719628,-0.50863266,-0.43431655,0.71688765,847.76556,869.92676,851.39197,846.9597,951.31866,-0.0040283203125,0.1611328125,0.991943359375,-1.906585693359375,2.175750732421875,0.949554443359375,1,1.0,1.0,1.0,1.0,38.17
2022-11-19 14:07:49.981,0.527323,0.89575917,1.0736483,0.57026505,-0.6081156,0.15111479,0.27688256,-0.19477217,-0.06676139,0.13052179,0.2848349,-0.10771016,0.06885197,0.16256605,0.5573209,0.81479144,-0.07719628,0.17080283,0.8646026,0.71688765,835.6777,859.45056,851.39197,811.50183,936.0073,0.0050048828125,0.16400146484375,0.98779296875,-2.295379638671875,1.443023681640625,1.143951416015625,1,2.0,1.0,1.0,2.0,38.17
2022-11-19 14:07:51.001,1.0818652,0.94905776,0.92768836,0.57026505,0.73937327,0.32096764,0.3538924,-0.19477217,0.6977486,0.61319995,0.47470483,-0.10771016,0.54917425,0.25477582,0.644832,0.81479144,0.5637245,0.324272,0.7586863,0.71688765,829.6337,836.4835,882.4176,872.3443,907.8022,0.00689697265625,0.169189453125,0.99365234375,-1.83929443359375,1.27105712890625,1.39068603515625,1,1.0,1.0,1.0,1.0,38.17
2022-11-19 14:07:51.458,,,,,,,,,,,,,,,,,,,,,,,,,,,,,,,,,,,,,,/muse/elements/blink
2022-11-19 14:07:52.024,1.3126007,1.3142443,0.78015035,0.23602378,1.0630319,0.6472636,0.18185063,0.41714364,0.8644418,0.40856412,0.6230585,0.9610861,0.53879875,-0.060572404,0.4030197,1.3564374,0.37612438,-0.15245983,0.21868391,1.2760255,810.696,845.34796,863.8828,838.0952,948.49817,0.0064697265625,0.16632080078125,0.985595703125,-1.921539306640625,2.28790283203125,1.136474609375,1,1.0,1.0,1.0,1.0,38.17
2022-11-19 14:07:53.032,1.34958,0.756082,0.49475327,1.0991505,1.0017017,0.34690517,0.085615106,0.7711113,1.3966515,0.3825617,0.6599629,1.3290182,0.36824024,-0.24275437,0.18660808,0.8029766,0.021168908,-0.4910717,0.053734154,1.0217199,849.3773,857.03296,842.1245,829.2308,887.25275,3.662109375E-4,0.16583251953125,0.978271484375,-2.6019287109375,1.86920166015625,0.9869384765625,1,1.0,1.0,1.0,1.0,38.17
2022-11-19 14:07:53.537,,,,,,,,,,,,,,,,,,,,,,,,,,,,,,,,,,,,,,/muse/elements/blink
2022-11-19 14:07:54.052,1.3005834,0.6197893,0.4722716,1.0401682,1.1018236,0.028983638,-0.020102838,0.90652627,1.4800216,0.5209897,0.4695863,1.3427327,0.4140132,-0.15719098,-0.046532106,0.77637106,-0.019316,-0.47084635,-0.14647086,0.9812936,849.7802,857.03296,849.3773,853.4066,916.26373,-3.662109375E-4,0.1551513671875,0.98321533203125,-1.966400146484375,1.77947998046875,1.128997802734375,1,1.0,1.0,1.0,1.0,38.17
2022-11-19 14:07:55.075,0.9111038,0.9836336,0.275221,0.27756184,0.8330511,0.3018409,-0.0662301,0.61563706,1.3015834,0.4817589,-0.13571793,0.76031727,0.7402046,-0.10692989,-0.34587526,0.722066,-0.0141046,-0.77149653,-0.45310175,0.38425708,849.3773,864.68866,846.9597,867.50916,898.93774,0.009033203125,0.1630859375,0.97967529296875,-2.534637451171875,1.74957275390625,1.009368896484375,1,1.0,1.0,1.0,1.0,38.19
2022-11-19 14:07:55.381,,,,,,,,,,,,,,,,,,,,,,,,,,,,,,,,,,,,,,/muse/elements/blink
2022-11-19 14:07:56.095,1.2077552,0.87504625,0.7415477,0.27756184,1.0583414,0.40042737,0.47007376,0.61563706,1.4607364,0.2051831,0.48353145,0.76031727,0.6035612,0.016128978,0.12006489,0.722066,-0.07590459,-0.72743803,-0.22066988,0.38425708,824.7985,861.4652,842.52747,821.1722,889.67035,0.01080322265625,0.1580810546875,0.9886474609375,-2.265472412109375,1.89910888671875,0.897216796875,1,1.0,1.0,1.0,1.0,38.19
2022-11-19 14:07:57.105,,,,,,,,,,,,,,,,,,,,,,,,,,,,,,,,,,,,,,/muse/elements/blink
2022-11-19 14:07:57.107,1.3066636,0.23323396,0.72714925,0.32785589,0.9213237,0.03340433,0.1732246,0.65518314,1.444267,0.17427343,0.4786289,0.75735193,0.31859595,-0.29077932,0.11769312,0.71271694,-0.113979295,-0.6061014,0.0041577346,0.40941864,835.6777,882.8205,853.8095,805.05493,832.8571,0.00958251953125,0.16156005859375,0.9837646484375,-2.34771728515625,1.966400146484375,1.502838134765625,1,1.0,1.0,1.0,1.0,38.19
2022-11-19 14:07:58.128,1.5778553,1.0685927,0.56675345,0.32785589,1.2740589,-0.07926145,0.051910803,0.65518314,1.2393832,0.0665781,0.14713648,0.75735193,0.48853055,-0.37579885,-0.062079333,0.71271694,0.038535487,-0.7042798,-0.0064767036,0.40941864,830.0366,876.3736,843.3333,830.4396,831.2454,0.003662109375,0.1578369140625,0.98736572265625,-2.40753173828125,2.011260986328125,1.024322509765625,1,1.0,1.0,1.0,1.0,38.19
2022-11-19 14:07:59.148,0.2748294,1.1365937,0.9809935,0.41374874,0.11132314,-0.23698339,0.087425955,0.43248588,0.4997748,-0.0046886024,0.18681042,0.6838063,0.2640378,-0.43527272,0.03069617,0.5687967,-0.038735755,-0.6737395,0.049031254,0.73493123,843.73627,856.2271,852.1978,826.4103,816.337,-0.00555419921875,0.16668701171875,0.9906005859375,-2.145843505859375,2.91595458984375,0.8673095703125,1,1.0,1.0,1.0,1.0,38.19
2022-11-19 14:08:00.169,0.5942559,0.44378036,1.015717,0.4162956,0.075148724,-0.33728674,-0.2807993,0.105182484,0.37835065,-0.1874748,-0.20428075,0.5287716,0.4260352,-0.42942116,-0.20367241,0.40132567,0.38575146,-0.66542476,-0.3843969,0.443642,841.31866,827.2161,827.619,843.3333,822.7839,0.002197265625,0.16143798828125,0.98260498046875,-2.452392578125,1.607513427734375,1.831817626953125,1,1.0,1.0,1.0,1.0,38.19
2022-11-19 14:08:01.192,0.8772494,1.1182451,0.94884586,0.786502,0.7859935,0.64052266,0.09530355,0.6445907,0.5160254,-0.02651974,0.18663853,0.5100566,0.87239516,-0.2936874,-0.45563278,0.7809491,0.81721926,-0.47872487,-0.6682196,0.7256645,814.3223,846.1539,829.2308,815.12823,853.4066,0.001953125,0.1632080078125,0.98785400390625,-2.609405517578125,2.026214599609375,0.73272705078125,1,1.0,1.0,1.0,1.0,38.19
2022-11-19 14:08:02.199,1.1110758,1.1061382,1.1113684,1.0260004,1.1224564,0.6483483,0.29801923,0.87576586,0.5055485,-0.020952726,0.26710173,1.0065103,1.0655829,-0.21677323,-0.45775604,0.8156585,0.9998796,-0.47511196,-0.66904885,0.7853976,835.2747,851.39197,846.1539,827.619,914.2491,-0.0089111328125,0.1622314453125,0.988037109375,-1.65985107421875,2.392578125,0.657958984375,1,1.0,1.0,1.0,1.0,38.19
2022-11-19 14:08:03.220,0.7859981,-0.20512122,0.51028675,0.7869723,0.570771,-0.5750498,-0.33441618,0.61327964,1.0922021,-0.20089579,0.01495463,1.0702637,0.69661325,-0.46780035,-0.4833876,0.40072918,0.711488,-0.53101313,-0.5461193,0.3432358,805.8608,866.7033,828.8278,789.34064,864.68866,-0.00244140625,0.1697998046875,0.99578857421875,-1.921539306640625,2.0037841796875,0.37384033203125,1,1.0,1.0,1.0,1.0,38.19
2022-11-19 14:08:04.223,0.92955345,0.16901161,1.1558839,0.67799497,0.70282835,0.042826124,0.26380563,0.38079387,0.9796595,0.06572053,0.1347304,0.8174798,0.738772,-0.24178237,-0.36697978,0.37336856,0.5177603,-0.5012829,-0.75219494,0.1981472,850.58606,880.0,869.5238,832.4542,868.315,-0.0076904296875,0.16680908203125,0.986572265625,-1.8243408203125,1.772003173828125,0.725250244140625,1,1.0,1.0,1.0,1.0,38.19
2022-11-19 14:08:05.249,1.1016272,1.0554031,1.4402479,1.0673872,0.73803544,0.33131015,0.55101544,0.79171294,0.73812145,0.23625334,0.24441813,0.8437631,0.650624,-0.25373986,-0.2947835,0.5137033,0.5697159,-0.3698629,-0.8091121,0.277902,823.9927,846.1539,844.1392,830.4396,938.8278,-0.00604248046875,0.16278076171875,0.98223876953125,-3.170166015625,2.7215576171875,1.42059326171875,1,1.0,1.0,1.0,1.0,38.19
2022-11-19 14:08:06.256,0.95117325,0.9132738,0.9571544,1.2626163,0.574867,0.18935151,0.22760676,0.8350717,0.78295517,0.18450767,0.21047725,0.56859094,0.51623625,-0.5276063,-0.45409194,0.427946,0.75482625,-0.7306111,-0.84819025,0.25653538,822.7839,857.03296,846.55676,823.9927,902.5641,-0.0126953125,0.164306640625,0.9874267578125,-3.21502685546875,0.171966552734375,1.218719482421875,1,1.0,1.0,1.0,1.0,38.19
2022-11-19 14:08:07.276,0.363287,-0.035757374,0.016532969,0.45906857,0.16938336,-0.16572915,-0.5958833,-0.03488054,0.8082314,-0.04794143,-0.06942492,0.41242754,0.6543427,-0.5208237,-0.5149813,0.4076323,0.7533144,-0.68771565,-0.68090487,0.3304411,829.6337,856.2271,849.7802,840.10986,947.6923,-0.01336669921875,0.17144775390625,0.98291015625,-2.4224853515625,1.143951416015625,0.88226318359375,1,1.0,1.0,1.0,1.0,38.19
2022-11-19 14:08:08.300,-0.08292217,-0.06966081,-0.07247707,0.30921865,-0.02529051,-0.6564642,-0.41744372,-0.11239307,0.5823113,-0.40968797,-0.0103459945,0.441129,0.8044659,-0.5246196,-0.4339897,0.54765725,0.67224514,-0.4672461,-0.5475199,0.13776231,826.4103,857.03296,849.7802,844.5421,938.4249,-0.01055908203125,0.157958984375,0.9815673828125,-3.1103515625,2.115936279296875,0.052337646484375,1,1.0,1.0,1.0,1.0,38.19
2022-11-19 14:08:09.307,-0.23755239,0.9282959,-6.0913427E-4,0.2133334,-0.2746992,0.41234517,-0.27872732,-0.024386369,0.46744108,0.86895,0.0074419943,0.30288512,0.71981317,-0.14149895,-0.4783831,0.6702502,0.73620164,-0.42455587,-0.72349405,0.0013904865,770.80585,868.315,860.2564,794.57874,960.989,-0.0152587890625,0.1611328125,0.9862060546875,-2.67669677734375,1.786956787109375,1.24114990234375,1,1.0,1.0,1.0,1.0,38.19
2022-11-19 14:08:09.475,,,,,,,,,,,,,,,,,,,,,,,,,,,,,,,,,,,,,,/muse/elements/blink
2022-11-19 14:08:10.312,-0.23755239,1.2734846,0.2668045,0.2133334,-0.2746992,0.7024019,-0.12696256,-0.024386369,0.46744108,0.86895,0.1954877,0.30288512,0.71981317,0.034403156,-0.47205925,0.6702502,0.73620164,-0.35277504,-0.5427568,0.0013904865,827.619,862.674,848.97437,877.98535,870.32965,-0.0126953125,0.168212890625,0.99017333984375,-2.64678955078125,1.517791748046875,1.562652587890625,1,1.0,1.0,1.0,1.0,38.19
2022-11-19 14:08:11.318,-0.23755239,0.47284785,0.2959167,0.2133334,-0.2746992,-0.10930622,-0.05210422,-0.024386369,0.46744108,0.024256628,0.2059369,0.30288512,0.71981317,-0.3014686,-0.5697105,0.6702502,0.73620164,-0.21572214,-0.55932033,0.0013904865,815.12823,855.82416,855.0183,861.06226,949.707,-0.01324462890625,0.16436767578125,0.98358154296875,-2.093505859375,2.130889892578125,1.816864013671875,1,2.0,1.0,1.0,2.0,38.19
2022-11-19 14:08:12.338,-0.23755239,0.10256613,-0.39189434,0.48168582,-0.2746992,-0.43606132,-0.41508242,0.18250155,0.46744108,0.003785139,-0.19624667,0.4207568,0.71981317,-0.23722766,-0.5936636,0.9586199,0.73620164,-0.3066478,-0.66405207,1.3297178,821.5751,853.4066,870.32965,851.79486,955.7509,-0.0093994140625,0.16107177734375,0.984375,-2.07855224609375,2.235565185546875,0.94207763671875,1,1.0,1.0,1.0,1.0,38.19
2022-11-19 14:08:13.353,1.2927803,-0.22074413,0.94838613,1.1796318,1.3312408,0.4674725,0.3563964,1.3971837,1.6370167,0.7539292,0.5572274,1.7321956,0.6156395,-0.021915216,-0.20956048,0.7547072,0.5447327,-0.43168303,-0.8573357,0.90091103,841.7216,856.2271,842.9304,821.5751,822.381,-0.0106201171875,0.1668701171875,0.98468017578125,-2.160797119140625,2.100982666015625,0.934600830078125,1,1.0,1.0,1.0,1.0,38.19
2022-11-19 14:08:14.367,1.1415923,-0.0032641478,0.9812078,1.1679809,1.2289274,0.52078474,0.4508988,1.4050858,1.7185106,0.76174927,0.6547125,1.7356722,0.6622996,0.04730183,-0.2777893,0.6313345,0.56390494,-0.31662476,-0.7025039,0.33936346,818.3516,854.61536,850.58606,858.24176,923.1135,-0.01171875,0.168212890625,0.98956298828125,-2.1533203125,2.07855224609375,1.136474609375,1,1.0,1.0,1.0,1.0,38.19
2022-11-19 14:08:15.377,0.53085834,0.055275675,-0.5333888,0.5524535,0.66697514,-0.36835876,-0.45858684,0.45838815,1.4642934,0.10661918,0.2715398,1.1362283,0.7985703,-0.3406898,-0.48339272,0.9370279,0.95066065,-0.41563356,-0.7524251,0.9520633,832.0513,856.2271,849.3773,827.619,819.9634,6.7138671875E-4,0.1656494140625,0.98724365234375,-2.893524169921875,1.54022216796875,0.725250244140625,1,1.0,1.0,1.0,1.0,38.19
2022-11-19 14:08:16.394,0.43961978,-0.37354022,-0.6891509,0.5234985,0.2667549,-0.5388425,-0.3112606,0.38529179,1.1973585,0.057107724,-0.3516961,0.87481225,0.78642,-0.21491428,-0.45863056,0.8273725,0.9844088,-0.44101688,-0.70828485,1.0137786,840.9158,858.6447,850.18317,811.9048,809.0842,-0.00274658203125,0.16510009765625,0.98577880859375,-2.429962158203125,2.579498291015625,1.136474609375,1,1.0,1.0,1.0,1.0,38.19
2022-11-19 14:08:17.416,0.19718647,-0.3985855,-0.4931957,0.28016946,-0.02221931,-0.6191005,-0.4153612,0.23914301,1.0140958,-0.014940867,-0.26303753,0.6500089,0.55797964,-0.3124984,-0.5270944,0.5509144,0.410137,-0.36468828,-0.6251716,0.27192274,839.304,856.63007,849.7802,828.022,859.0476,-0.008056640625,0.1683349609375,0.98333740234375,-2.295379638671875,0.800018310546875,1.577606201171875,1,1.0,1.0,1.0,1.0,38.19
2022-11-19 14:08:17.673,,,,,,,,,,,,,,,,,,,,,,,,,,,,,,,,,,,,,,/muse/elements/blink
2022-11-19 14:08:18.457,0.99839187,-0.5567246,-0.5248951,0.42238295,0.8678159,-0.6062107,-0.47515085,0.23927179,1.0961432,-0.3341354,-0.30533502,0.6627594,0.4670764,-0.4329973,-0.5988427,0.68370324,0.6114184,-0.4326959,-0.75971013,0.44074675,820.3663,858.24176,851.39197,820.3663,835.6777,-0.00830078125,0.17193603515625,0.9810791015625,-2.4822998046875,2.071075439453125,1.682281494140625,1,1.0,1.0,1.0,1.0,38.19
2022-11-19 14:08:19.467,1.0839047,-0.5894451,-0.33655745,0.6523238,0.765387,-0.4947241,-0.59611124,0.16114663,1.0866556,-0.19822134,-0.18704583,0.86782867,0.5846966,-0.5398466,-0.5176618,0.48420092,0.7042186,-0.35427472,-0.79054075,0.46976772,839.707,856.63007,848.5714,825.6044,809.0842,-0.00372314453125,0.16485595703125,0.990478515625,-3.222503662109375,1.084136962890625,0.179443359375,1,1.0,1.0,1.0,1.0,38.19
2022-11-19 14:08:20.477,0.4291285,-0.4168519,0.18015517,0.3159018,0.40979326,-0.36030775,-0.23492289,0.16130866,1.1346401,-0.07845419,-0.1708354,1.0537755,0.5239437,-0.31729296,-0.47475916,0.47407392,0.50328493,-0.3475271,-0.6422399,0.3692674,846.9597,852.6007,847.3626,857.03296,933.9927,-0.01092529296875,0.1688232421875,0.98345947265625,-2.572021484375,1.65985107421875,1.263580322265625,1,1.0,1.0,1.0,1.0,38.19
2022-11-19 14:08:21.496,0.4737088,-0.4495874,-0.42158073,0.4611927,0.3805837,-0.6217521,-0.30058378,0.30658498,1.1805949,-0.12686837,-0.20649317,1.0515621,0.42826295,-0.43598112,-0.5065796,0.3535276,0.27796516,-0.59394866,-0.806239,0.28917634,839.707,852.6007,848.1685,837.28937,902.5641,-0.00299072265625,0.17120361328125,0.98321533203125,-2.370147705078125,1.502838134765625,1.30096435546875,1,1.0,1.0,1.0,1.0,38.19
2022-11-19 14:08:22.504,0.9153389,-0.25455102,-0.36617658,0.9805892,0.7603506,-0.46252832,-0.5104027,0.5891891,1.1450782,-0.32694513,-0.26681992,1.0968534,0.48966387,-0.55200934,-0.42050672,0.5278945,0.3022127,-0.3169001,-0.15406583,0.46583545,830.84247,857.8388,847.76556,845.7509,926.337,-0.01446533203125,0.170166015625,0.9879150390625,-3.0206298828125,3.5888671875,1.203765869140625,1,1.0,1.0,1.0,1.0,38.19
2022-11-19 14:08:23.520,0.7155834,0.99425393,1.1527996,1.1146706,0.74063474,0.17593996,0.46393168,0.9945334,1.1395789,0.20861202,0.12882322,1.126272,0.5053513,-0.30151033,-0.40375698,0.5069399,0.28109688,-0.30194563,-0.24734932,0.3255301,822.381,854.61536,847.76556,853.8095,920.293,-0.00433349609375,0.169189453125,0.9849853515625,-1.921539306640625,1.876678466796875,1.831817626953125,1,1.0,1.0,1.0,1.0,38.19
2022-11-19 14:08:24.543,0.14052664,1.2705275,1.2921387,1.1731477,0.42609727,0.5852291,0.7300618,1.1129447,1.1342514,0.6015393,0.12977864,1.0664531,0.4438457,-0.12244759,-0.4429301,0.5660325,0.21062605,-0.34968796,-0.78381854,0.110427186,844.94507,858.24176,867.9121,856.2271,944.4689,0.022705078125,0.141845703125,0.9764404296875,-2.82623291015625,-1.353302001953125,0.381317138671875,1,1.0,1.0,1.0,1.0,38.19
2022-11-19 14:08:25.417,,,,,,,,,,,,,,,,,,,,,,,,,,,,,,,,,,,,,,/muse/elements/blink
2022-11-19 14:08:25.551,1.1631607,0.95807916,0.7796759,0.9631214,1.1094456,0.34438315,0.4642883,0.9960581,1.3553399,0.5864431,0.1660358,1.2441767,0.53115004,-0.34318838,-0.45778394,0.5177634,0.07062846,-0.7516486,-0.96452624,0.23608716,832.4542,853.8095,856.63007,847.76556,918.2784,-0.02783203125,0.173828125,1.00543212890625,5.420684814453125,3.745880126953125,-0.441131591796875,1,1.0,1.0,1.0,1.0,38.19
2022-11-19 14:08:26.555,1.0971192,0.32140067,0.4793736,0.9783204,1.0214477,0.021376379,0.17497179,1.06073,1.3111191,0.11339407,0.17616236,1.1172367,0.44528586,-0.28858238,-0.55452734,0.58403635,0.01559928,-1.0664325,-1.0238029,0.09476618,825.2015,850.58606,852.6007,837.28937,839.304,-0.07318115234375,0.171142578125,0.97821044921875,-4.658050537109375,3.222503662109375,-0.381317138671875,1,1.0,1.0,1.0,1.0,38.19
2022-11-19 14:08:27.573,0.43500346,-0.17508982,0.2007053,0.25795248,0.6039851,-0.2914051,-0.24095896,0.30652606,1.227852,0.15484595,0.22016633,1.1277231,0.37101603,-0.41043857,-0.45084387,0.42989254,0.18358915,-1.0594438,-0.8172671,0.14020732,840.10986,852.6007,837.28937,872.74725,1027.8755,-0.04840087890625,0.16448974609375,0.9658203125,-0.40374755859375,-1.891632080078125,-5.24871826171875,1,1.0,1.0,1.0,1.0,38.19
2022-11-19 14:08:28.597,0.3159908,0.072145574,0.33832335,0.4430794,0.3737078,-0.50132126,-0.2443517,0.20377307,1.1796123,0.09202007,0.21553014,1.1059093,0.34085566,-0.3344965,-0.48827463,0.5039195,0.4374642,-0.33701506,-0.43497288,0.31296372,805.8608,857.03296,844.94507,841.31866,898.1319,0.0333251953125,0.1981201171875,0.96929931640625,-1.278533935546875,-2.519683837890625,2.07855224609375,1,1.0,1.0,1.0,1.0,38.19
2022-11-19 14:08:29.606,0.2869753,0.7241895,0.7629257,0.4597426,-0.08664003,0.19598183,0.32730043,0.17988715,0.9364004,0.3146333,0.22145696,1.0822163,0.302723,-0.22540003,-0.29303297,0.548121,0.50102335,-0.25232276,-0.2997735,0.31733972,840.10986,860.65936,838.0952,824.3956,838.0952,0.03125,0.1612548828125,0.97125244140625,-0.336456298828125,3.2000732421875,-1.31591796875,1,1.0,1.0,1.0,1.0,38.19
2022-11-19 14:08:30.617,0.9114105,0.6994307,0.52010447,1.2413279,0.64538807,0.21642181,0.21098383,0.79763246,1.0481508,0.2022262,0.2169042,1.0360448,0.7445714,-0.32663104,-0.30008855,0.8110775,0.33590972,-0.63283837,-0.91739404,0.5188615,843.3333,854.61536,846.1539,826.8132,816.7399,0.0284423828125,0.17987060546875,0.9766845703125,-0.590667724609375,1.435546875,0.007476806640625,1,1.0,1.0,1.0,1.0,38.19
2022-11-19 14:08:31.630,1.0253681,0.02689737,0.27546966,0.9481368,0.75216085,-0.21791117,0.0026225604,0.82176113,1.1107771,0.15465705,0.031018825,0.9137738,0.72825503,-0.38175127,-0.38533655,0.76497006,0.4011397,-0.2982324,-0.74593335,0.30427366,782.8938,842.1245,845.34796,769.19415,781.685,0.01702880859375,0.17510986328125,0.97625732421875,-2.579498291015625,3.970184326171875,-0.13458251953125,1,1.0,1.0,1.0,1.0,38.19
2022-11-19 14:08:31.868,,,,,,,,,,,,,,,,,,,,,,,,,,,,,,,,,,,,,,/muse/elements/blink
2022-11-19 14:08:32.637,1.2753248,-0.20410652,0.095584184,1.2707254,1.1184863,-0.34828725,-0.3293333,1.0862663,1.1408976,-0.087414205,-0.08182404,1.2000979,0.7661636,-0.35069484,-0.35139328,0.72454035,0.5060347,-0.3987642,-0.58161104,0.38732618,841.7216,850.989,852.1978,817.5458,830.84247,0.01702880859375,0.17413330078125,0.9744873046875,-3.1103515625,1.996307373046875,1.256103515625,1,1.0,1.0,1.0,1.0,38.19
2022-11-19 14:08:32.705,,,,,,,,,,,,,,,,,,,,,,,,,,,,,,,,,,,,,,/muse/elements/blink
2022-11-19 14:08:33.656,1.227944,-0.16103722,0.22258961,1.1350781,1.2550415,-0.22911124,-0.19704804,1.2283795,1.1865227,-0.02240157,0.022120045,1.2235074,1.0403374,-0.17867182,-0.27369708,0.8601857,0.780507,-0.36125693,-0.3028723,0.9049517,832.8571,854.61536,849.3773,843.73627,783.2967,0.00555419921875,0.1602783203125,0.97833251953125,-2.19818115234375,0.82244873046875,1.039276123046875,1,1.0,1.0,1.0,1.0,38.19
2022-11-19 14:08:34.680,0.54840344,-0.20249613,-0.3693148,0.5079361,0.58297163,-0.51005584,-0.62703466,0.67016965,0.8373346,-0.034857363,-0.28165227,0.9159719,0.9315129,-0.17678739,-0.31792533,0.8771353,0.68926376,-0.23809516,-0.39735377,0.8236965,835.2747,859.85345,842.1245,809.4872,841.31866,0.00665283203125,0.1619873046875,0.98504638671875,-2.205657958984375,2.071075439453125,1.054229736328125,1,1.0,1.0,1.0,1.0,38.19
2022-11-19 14:08:35.702,0.60387933,0.21129405,-0.2852947,0.52841496,0.46890268,-0.5013692,-0.582729,0.49838525,0.51544535,-0.089603856,-0.2839013,0.6877034,0.9393279,-0.31449354,-0.3612549,0.73059297,0.7284141,-0.26405144,-0.39713478,0.79274225,836.4835,846.1539,847.76556,836.08057,869.92676,0.00299072265625,0.16888427734375,0.99346923828125,-2.071075439453125,2.071075439453125,1.786956787109375,1,1.0,1.0,1.0,1.0,38.19
2022-11-19 14:08:36.707,0.2469338,0.042980656,-0.20708188,0.4913384,0.355817,-0.43709546,-0.4349659,0.49748337,0.82299066,0.09170526,-0.06675379,0.85326105,0.8214705,-0.20703503,-0.39132586,0.6043977,0.75371605,-0.2684268,-0.48408797,0.76559055,839.707,851.39197,853.00366,842.1245,911.02563,-0.0030517578125,0.1680908203125,0.984130859375,-2.25799560546875,1.6448974609375,1.443023681640625,1,1.0,1.0,1.0,1.0,38.19
2022-11-19 14:08:37.716,0.19755098,-0.07243881,-0.32458004,0.41660795,0.12712827,-0.55632836,-0.31913725,0.3534296,0.79103756,0.068568684,-0.061379466,0.7109136,0.20749475,-0.24432555,-0.51810753,0.26955768,-0.05277535,-0.6406304,-0.83533424,0.16970043,836.8865,849.3773,847.3626,826.8132,772.01465,0.0028076171875,0.17041015625,1.000732421875,-2.0635986328125,4.029998779296875,1.09161376953125,1,1.0,1.0,1.0,1.0,38.19
2022-11-19 14:08:38.729,0.7763269,-0.088107176,-0.26860446,0.9084908,0.046891946,-0.4001273,-0.28791872,0.13847272,0.42088562,-0.1365791,-0.41215467,0.32552233,0.25348103,-0.38311708,-0.4131492,0.23666134,0.20245536,-0.58377415,-0.9093824,0.15595758,843.3333,851.79486,851.39197,834.87177,938.4249,-0.001953125,0.16156005859375,0.9847412109375,-2.444915771484375,1.1962890625,0.800018310546875,1,1.0,1.0,1.0,1.0,38.19
2022-11-19 14:08:39.743,1.077539,0.06403861,0.10651979,1.0062358,0.62459785,-0.3131082,-0.3140701,0.8535425,0.870902,-0.09267775,-0.31488466,0.7633626,0.57850665,-0.3302424,-0.3842341,0.57246095,0.46145025,-0.3590676,-0.66075224,0.5105254,834.87177,849.3773,836.08057,836.08057,920.696,0.0048828125,0.16650390625,0.9888916015625,-3.03558349609375,2.04864501953125,2.071075439453125,1,1.0,1.0,1.0,1.0,38.19
2022-11-19 14:08:40.756,0.7271708,-0.02519847,0.27157032,0.7629192,0.5188562,-0.30314758,-0.18839419,0.6891297,0.8246703,-0.027940867,-0.28781143,0.8182585,0.47492227,-0.233404,-0.3923084,0.60191226,0.5058104,-0.35582927,-0.5317936,0.6006437,783.69965,849.3773,842.9304,815.5311,848.1685,0.0174560546875,0.1734619140625,0.984619140625,-2.07855224609375,1.48040771484375,1.0467529296875,1,1.0,1.0,1.0,1.0,38.19
2022-11-19 14:08:41.758,,,,,,,,,,,,,,,,,,,,,,,,,,,,,,,,,,,,,,/muse/elements/blink
2022-11-19 14:08:41.788,0.5210759,-0.205859,-0.154535,0.43923467,0.50356674,-0.6715545,-0.42950952,0.42847082,0.59969735,-0.09431891,-0.22550847,0.8465847,0.48905846,-0.1557205,-0.44558713,0.7478167,0.6571577,-0.3198721,-0.4962165,0.665699,893.69965,842.52747,851.79486,914.65204,881.6117,0.00140380859375,0.1767578125,0.98980712890625,-1.712188720703125,0.97198486328125,0.91217041015625,1,1.0,1.0,1.0,1.0,38.19
2022-11-19 14:08:42.810,0.40140566,0.35403782,0.30782515,0.60834324,0.48004302,-0.14395908,0.16254973,0.512164,0.5224468,0.12743023,-0.1661385,0.78123605,0.59954727,-0.060289767,-0.57508576,0.8187254,0.54303247,-0.3642443,-0.7484921,0.55486715,836.8865,842.52747,848.97437,841.31866,937.619,0.002685546875,0.16998291015625,0.98199462890625,-2.235565185546875,1.428070068359375,0.456085205078125,1,1.0,1.0,1.0,1.0,38.19
2022-11-19 14:08:43.817,0.43098602,0.06068428,-0.1826402,0.50906414,0.56404275,-0.37936237,-0.33550265,0.22034602,1.0784688,0.16605593,-0.10406845,0.45430517,0.4304879,-0.2005451,-0.6730765,0.19481064,0.1862328,-0.58238566,-0.75735945,-0.21393208,830.4396,845.34796,834.87177,826.0073,806.6667,-0.00897216796875,0.175537109375,0.983154296875,-1.60003662109375,4.119720458984375,1.981353759765625,1,1.0,1.0,1.0,1.0,38.19
2022-11-19 14:08:44.837,0.2955947,-0.24597399,0.16596213,0.4176855,0.3016002,-0.34127373,-0.5187874,0.091995075,1.0749019,0.14176033,-0.5022903,0.5456196,0.2529737,-0.38259435,-0.6155498,0.18187617,0.08101234,-0.7435754,-0.91885585,-0.09286229,832.4542,844.1392,850.989,842.1245,828.022,0.02593994140625,0.187744140625,0.9954833984375,0.538330078125,-0.007476806640625,3.357086181640625,1,1.0,1.0,1.0,1.0,38.19
2022-11-19 14:08:45.849,0.78993285,0.64644814,0.5654179,0.36001384,0.7090356,0.25651023,0.0073760897,0.14932542,0.73501563,0.042556,0.14143471,0.6077288,0.3736949,-0.29945618,-0.13987431,0.57321006,0.23815307,-0.6411334,-0.30823955,0.55964714,848.5714,846.9597,846.9597,822.381,787.72894,0.0433349609375,0.20068359375,0.98248291015625,-2.22808837890625,1.86920166015625,-1.951446533203125,1,1.0,1.0,1.0,1.0,38.19
2022-11-19 14:08:46.868,0.7543805,0.69343334,0.80078244,0.22319394,0.68400276,0.2042343,0.14382,0.02458688,0.7492037,0.45388874,0.57029194,0.48240563,0.40476823,-0.07639372,0.029770965,0.69200236,0.09301833,-0.35320404,-0.21065816,0.6417882,830.84247,853.00366,847.76556,822.7839,835.2747,0.0401611328125,0.1947021484375,0.971923828125,-3.641204833984375,1.71966552734375,0.37384033203125,1,1.0,1.0,1.0,1.0,38.19
2022-11-19 14:08:47.879,0.5317284,0.8651464,0.995782,0.5320376,0.50664264,0.22693472,0.3979664,0.06952346,0.7058993,0.45109555,0.5613851,0.4301121,0.3316088,-0.014934326,0.096274175,0.5354452,-0.009828661,-0.121395156,-0.15451035,0.45484442,841.31866,855.42126,839.707,842.1245,763.5531,0.06170654296875,0.2052001953125,0.9735107421875,2.235565185546875,-0.01495361328125,4.015045166015625,1,1.0,1.0,1.0,1.0,38.19
2022-11-19 14:08:48.897,0.4618174,0.35383582,0.48271695,0.6487035,0.3500887,-0.14928162,0.074857585,0.10557312,0.42815438,0.023564152,0.2697626,0.6162711,0.16142495,-0.37964547,-0.04960173,0.35962912,0.09414579,-0.44414,-0.15737104,0.20046145,853.4066,844.5421,844.5421,843.73627,875.56775,0.07354736328125,0.228759765625,0.973388671875,-2.385101318359375,2.310333251953125,-3.289794921875,1,1.0,1.0,1.0,1.0,38.19
2022-11-19 14:08:49.916,0.68535835,0.16574904,0.15191738,0.7701997,0.5292474,-0.1510036,-0.026866956,0.4079019,0.6721911,0.11321192,0.034165908,0.91065043,0.37464792,-0.16451848,-0.15440452,0.74575466,0.13168238,-0.36417648,-0.39747098,0.4016096,848.5714,855.0183,851.79486,827.2161,820.3663,0.00897216796875,0.2578125,0.9757080078125,-0.082244873046875,15.529327392578125,1.54022216796875,1,1.0,1.0,1.0,1.0,38.19
2022-11-19 14:08:50.938,0.67561215,0.19485784,0.7171017,0.8461418,0.4734032,0.26156527,0.29240537,0.63284403,0.68356717,0.20894021,0.13847694,1.0398722,0.41300416,-0.19557862,-0.23023225,0.8859235,0.23054975,-0.34494823,-0.37171003,0.52783936,889.2674,844.5421,853.4066,836.08057,799.81683,0.08062744140625,0.197509765625,0.9884033203125,-3.70849609375,0.6878662109375,2.5421142578125,1,1.0,1.0,1.0,1.0,38.19
2022-11-19 14:08:51.965,0.42365432,0.33922905,0.48722988,0.73836124,0.409737,0.21776043,0.15194453,0.50226986,0.613786,0.092791006,0.15508275,0.8365412,0.29427397,-0.25742668,-0.26127547,0.75462353,0.26799908,-0.2533022,-0.19145076,0.4882749,832.0513,848.5714,839.707,818.3516,936.0073,0.0667724609375,0.19329833984375,0.9796142578125,-0.605621337890625,3.327178955078125,1.734619140625,1,1.0,1.0,1.0,1.0,38.19
2022-11-19 14:08:52.968,1.2346437,0.3325662,0.17890994,1.0879216,0.8382115,0.037008327,0.07251127,0.88962007,0.8625671,0.024307393,0.08311581,0.9474231,0.6773835,-0.21042638,-0.3215134,0.8843527,0.38948768,-0.368639,-0.5715044,0.32297754,824.3956,835.6777,859.45056,842.9304,940.84247,0.06182861328125,0.22796630859375,0.96807861328125,0.67291259765625,2.923431396484375,5.375823974609375,1,1.0,1.0,1.0,1.0,38.19
2022-11-19 14:08:53.988,0.80035347,0.38539636,0.32664278,0.69710886,0.64376,-0.030470408,-0.19970901,0.5779035,0.9012393,-0.16507155,0.10421266,1.0210218,0.6113601,-0.2997656,-0.24104232,0.6749058,0.25988394,-0.46411884,-0.29060245,0.5792903,824.7985,843.73627,847.76556,847.76556,905.78754,0.09527587890625,0.2481689453125,0.974853515625,0.201873779296875,3.0206298828125,3.289794921875,1,1.0,1.0,1.0,1.0,38.19
2022-11-19 14:08:54.993,0.35216737,0.19511913,0.12354424,0.9382447,0.28306493,-0.03505396,-0.34288454,0.751547,0.7202238,0.027546033,0.304105,1.0673617,0.42790282,-0.40572965,-0.101052314,0.78775,0.19386393,-0.52109855,-0.08115804,0.6701843,798.60803,848.1685,854.21246,868.71796,880.80585,0.02496337890625,0.191650390625,0.97210693359375,-12.747955322265625,-1.4056396484375,-7.932891845703125,1,1.0,1.0,1.0,1.0,38.19
2022-11-19 14:08:55.905,,,,,,,,,,,,,,,,,,,,,,,,,,,,,,,,,,,,,,/muse/elements/jaw_clench
2022-11-19 14:08:56.001,0.28782445,0.69563174,0.8667992,1.1504375,0.080081634,0.45462835,0.39189002,1.024585,-0.055457808,0.42477277,0.88024133,1.5997695,0.2471587,0.2574329,0.11346562,1.1382756,-0.13550244,0.30507982,0.21566486,1.0545121,826.8132,854.21246,842.9304,818.7546,915.05493,0.056396484375,0.2711181640625,0.98193359375,5.031890869140625,2.2430419921875,12.9498291015625,1,1.0,1.0,1.0,1.0,38.19
2022-11-19 14:08:57.012,1.6207714,0.7878413,0.81074667,0.98001146,1.3256214,0.25103965,0.31310487,0.9649948,1.4801843,0.5232574,0.8661143,1.5672699,0.8864878,0.07929104,0.46789983,1.4366691,0.82506806,-0.0016533283,0.5453878,1.2944015,837.28937,849.7802,850.18317,845.7509,877.98535,0.089599609375,0.18572998046875,0.98455810546875,-4.35150146484375,-0.8074951171875,1.8243408203125,1,1.0,1.0,1.0,1.0,38.19
2022-11-19 14:08:58.029,1.436065,0.5898289,0.7088489,0.93169856,1.1825887,0.025857968,0.16601557,0.83757997,1.4295688,0.43804708,0.37735513,1.2568048,0.6731067,-0.15545766,-0.16488305,1.0479484,0.38417718,-0.4508662,-0.39206532,0.6675212,833.2601,849.7802,851.79486,856.63007,919.4872,0.09881591796875,0.18658447265625,0.97259521484375,-1.256103515625,2.03369140625,1.48040771484375,1,1.0,1.0,1.0,1.0,38.19
2022-11-19 14:08:59.035,0.9634702,0.7858108,0.6065069,0.9781949,0.72470224,-0.12551111,-0.12831329,0.8032333,0.89698374,0.110738076,-0.10630176,0.79164565,0.4519557,-0.27467692,-0.42962286,0.77042234,0.04774377,-0.28710023,-0.48440495,0.35291806,830.4396,847.76556,840.5128,844.1392,862.27106,0.1043701171875,0.19927978515625,0.9801025390625,-1.98883056640625,1.861724853515625,0.538330078125,1,1.0,1.0,1.0,1.0,38.19
2022-11-19 14:09:00.047,1.0985426,0.25888982,0.22071536,1.2230643,0.5605821,-0.18125598,-0.09990624,0.90382093,0.8099458,0.22331855,0.22942041,1.2186927,0.46709484,-0.22746767,-0.42757896,0.6946343,0.05013157,-0.36869448,-0.67453116,0.271476,872.74725,853.4066,845.7509,863.47986,784.90845,0.09063720703125,0.18914794921875,0.9755859375,-2.37762451171875,1.308441162109375,0.49346923828125,1,1.0,1.0,1.0,1.0,38.19
2022-11-19 14:09:01.067,1.0182958,0.2859004,0.27463838,1.0705551,0.63717246,-0.012320814,0.023232933,0.77563405,1.2073034,0.32442397,0.26523736,1.1561563,0.6835184,-0.11045959,-0.40561858,0.676793,0.26986116,-0.39602292,-0.6747985,0.32356662,863.0769,852.1978,847.76556,871.13556,876.77655,0.11798095703125,0.208984375,0.9761962890625,-3.252410888671875,2.1832275390625,0.859832763671875,1,1.0,1.0,1.0,1.0,38.19
2022-11-19 14:09:02.087,1.0770777,0.2674923,-0.01985998,0.96535444,0.6900407,-0.1166543,-0.26199004,0.45990202,1.2068521,0.15890189,-0.06788777,0.6819756,0.6222338,-0.20509316,-0.48207337,0.48015627,0.32654524,-0.54119384,-0.6008033,0.40704158,838.49817,842.9304,848.5714,835.2747,781.28204,0.0859375,0.18841552734375,0.96356201171875,-0.9271240234375,1.27105712890625,1.15142822265625,1,1.0,1.0,1.0,1.0,38.19
2022-11-19 14:09:03.090,0.76883435,0.63772494,0.4440659,0.5211737,0.6517423,-0.037054878,-0.09301706,0.3404534,0.9915573,0.17547508,0.32047325,0.66032207,0.27757362,-0.16740036,-0.5978738,0.28715417,0.025271922,-0.41890034,-0.5979072,0.19484362,836.8865,850.58606,844.94507,830.84247,800.2198,0.11822509765625,0.18157958984375,0.97943115234375,-3.790740966796875,1.921539306640625,1.742095947265625,1,1.0,1.0,1.0,1.0,38.19
2022-11-19 14:09:04.110,0.80179733,0.58660024,0.48254842,0.72971565,0.71196157,-0.22716811,-0.13581458,0.6745618,1.0194635,0.17262772,0.3201597,0.6628585,0.28061056,-0.27545005,-0.717557,0.4931052,-0.09249937,-0.4883666,-0.84464824,0.17398667,857.03296,853.8095,853.00366,854.61536,778.0586,0.10394287109375,0.17779541015625,0.97540283203125,-3.566436767578125,2.75146484375,1.921539306640625,1,1.0,1.0,1.0,1.0,38.19
2022-11-19 14:09:05.135,0.9286679,0.33531752,0.2249463,0.9243977,0.6725116,-0.0850718,-0.37012252,0.61125886,0.80706686,0.12549907,0.08610599,0.6243609,0.28175893,-0.3521905,-0.6620209,0.5111198,-0.17868716,-0.56299484,-0.94137603,0.117649525,848.5714,849.3773,845.7509,831.2454,789.34064,0.10638427734375,0.1771240234375,0.9803466796875,-1.60003662109375,1.158905029296875,3.028106689453125,1,1.0,1.0,1.0,1.0,38.19
2022-11-19 14:09:06.142,0.51929575,0.45753,0.45141914,0.74822825,0.5239069,-0.05357295,-0.029564964,0.4649206,0.63361365,0.14327498,0.077387795,0.49376717,0.24126576,-0.17876367,-0.47033486,0.3795786,-0.036644958,-0.6361486,-1.0177644,0.23745702,807.47253,846.1539,850.989,792.96704,751.06226,0.09967041015625,0.18719482421875,0.96783447265625,0.740203857421875,5.031890869140625,7.1478271484375,1,1.0,1.0,1.0,1.0,38.19
2022-11-19 14:09:07.146,1.0737807,-0.00984672,0.42673287,0.46318018,0.8622746,-0.45408043,-0.28519306,0.52231896,1.0839221,-0.043246407,-0.04853561,0.44263357,0.43467584,-0.14428592,-0.41187295,0.3769748,0.37732908,-0.35713553,-0.6602327,0.34240097,862.674,850.989,844.94507,847.3626,833.663,0.1009521484375,0.21636962890625,0.98834228515625,-0.97198486328125,-0.112152099609375,-1.308441162109375,1,1.0,1.0,1.0,1.0,38.19
2022-11-19 14:09:08.169,1.1650963,0.22904828,0.20155792,0.9399405,0.8054715,-0.16225885,-0.12200274,0.7318085,1.0520132,-0.02089587,0.13085055,0.8225701,0.46495444,-0.22145073,-0.31514907,0.8392962,0.30216542,-0.27136183,-0.62185115,0.232849,841.7216,852.1978,845.34796,841.31866,880.0,0.10491943359375,0.19232177734375,0.97540283203125,-1.996307373046875,2.67669677734375,1.383209228515625,1,1.0,1.0,1.0,1.0,38.19
2022-11-19 14:09:09.177,1.1663821,0.2477862,0.36835566,0.83945924,0.7062797,-0.19216716,-0.19238622,0.5854206,0.80576676,0.061864223,-0.017189343,0.82404417,0.42548847,-0.34634438,-0.5615412,0.6226115,0.029163785,-0.34819236,-0.6752834,0.15530473,839.304,846.1539,848.97437,836.8865,867.9121,0.11309814453125,0.18450927734375,0.973876953125,-3.768310546875,2.82623291015625,1.637420654296875,1,1.0,1.0,1.0,1.0,38.19
2022-11-19 14:09:10.181,0.64917535,-0.12504806,0.44865996,0.8548318,0.40514964,-0.38927576,-0.28559864,0.5828073,0.9006651,-0.011779379,-0.16730915,0.9403241,0.53147554,-0.40615478,-0.62199354,0.5269492,-0.05378262,-0.55829054,-0.92459285,0.0661365,836.8865,850.58606,848.97437,842.1245,906.99634,0.10205078125,0.19610595703125,0.97137451171875,-2.332763671875,1.68975830078125,0.9869384765625,1,1.0,1.0,1.0,1.0,38.19
2022-11-19 14:09:11.189,0.7157485,-0.14380632,0.15161589,1.0407486,0.488646,-0.29450813,-0.41047668,0.66713405,0.9006651,-0.21510252,-0.55794454,0.95747626,0.62302184,-0.2824809,-0.7008356,0.6161675,-0.043744612,-0.45816725,-0.9706411,0.07710389,830.84247,841.31866,856.2271,837.6923,801.02563,0.10589599609375,0.22113037109375,0.96832275390625,0.40374755859375,2.94586181640625,4.56085205078125,1,1.0,1.0,1.0,1.0,38.19
2022-11-19 14:09:12.193,0.54163134,0.27138844,0.13846812,0.77461463,0.44610342,-0.11846128,-0.036121458,0.5089501,0.8074261,-0.09206685,-0.15016197,0.9246138,0.25067714,-0.46119827,-0.48763114,0.548907,-0.29900563,-0.5209158,-0.96263605,0.08154349,823.5897,855.42126,830.0366,818.7546,963.8095,0.098388671875,0.21954345703125,0.999267578125,-8.134765625,5.42816162109375,-3.5589599609375,1,1.0,1.0,1.0,1.0,38.19
2022-11-19 14:09:12.918,,,,,,,,,,,,,,,,,,,,,,,,,,,,,,,,,,,,,,/muse/elements/blink
2022-11-19 14:09:13.200,0.6963126,0.5356298,0.8088651,0.18390042,0.6476372,0.39090884,0.46478018,0.31469434,0.9034145,0.17887604,0.45908073,0.89972234,0.27767742,-0.42841926,-0.42526102,0.41392148,-0.13393556,-0.45784,-1.0877976,0.17596687,840.9158,844.94507,845.34796,854.61536,949.304,0.01458740234375,0.13555908203125,0.97833251953125,-1.428070068359375,1.472930908203125,-2.639312744140625,1,1.0,1.0,1.0,1.0,38.19
2022-11-19 14:09:13.554,,,,,,,,,,,,,,,,,,,,,,,,,,,,,,,,,,,,,,/muse/elements/blink
2022-11-19 14:09:14.207,0.9084338,0.53432757,0.9326859,0.1808313,0.9156292,0.49012154,0.5398007,0.29619378,0.6941827,0.32814118,0.48766848,0.87127966,0.45113513,-0.23378602,-0.35663053,0.41815126,-0.022145445,-0.5536642,-0.77454937,0.21202192,841.7216,844.1392,848.97437,850.18317,888.0586,0.04034423828125,0.15594482421875,0.99432373046875,-2.67669677734375,0.171966552734375,0.620574951171875,1,1.0,1.0,1.0,1.0,38.19
