TimeStamp,Delta_TP9,Delta_AF7,Delta_AF8,Delta_TP10,Theta_TP9,Theta_AF7,Theta_AF8,Theta_TP10,Alpha_TP9,Alpha_AF7,Alpha_AF8,Alpha_TP10,Beta_TP9,Beta_AF7,Beta_AF8,Beta_TP10,Gamma_TP9,Gamma_AF7,Gamma_AF8,Gamma_TP10,RAW_TP9,RAW_AF7,RAW_AF8,RAW_TP10,AUX_RIGHT,Accelerometer_X,Accelerometer_Y,Accelerometer_Z,Gyro_X,Gyro_Y,Gyro_Z,HeadBandOn,HSI_TP9,HSI_AF7,HSI_AF8,HSI_TP10,Battery,Elements
2020-11-15 15:39:59.970,1.3426301,0.4275297,0.8898715,0.9738422,0.978455,0.22580177,0.4471176,1.4757631,1.2630677,0.3695556,0.5503051,1.3766013,0.8294656,-0.023231566,-0.083764724,1.1831269,0.7619959,-0.55487347,-0.29272497,0.8079,532.27106,859.85345,867.9121,408.1685,10.07326,-0.24420166015625,0.18756103515625,0.950439453125,-2.1234130859375,1.981353759765625,0.650482177734375,1,2.0,1.0,1.0,2.0,92.58
2020-11-15 15:40:00.553,,,,,,,,,,,,,,,,,,,,,,,,,,,,,,,,,,,,,,/muse/elements/jaw_clench
2020-11-15 15:40:00.982,1.3426301,0.37560567,0.5837329,0.9738422,0.978455,0.4004237,0.38638234,1.4757631,1.2630677,0.39532372,0.32424378,1.3766013,0.8294656,0.092901774,-0.32867658,1.1831269,0.7619959,-0.8152045,-0.64801085,0.8079,869.12085,888.86444,830.0366,853.8095,406.95972,-0.25018310546875,0.18408203125,0.94708251953125,-2.549591064453125,2.579498291015625,1.323394775390625,1,2.0,1.0,1.0,2.0,92.58
2020-11-15 15:40:01.087,,,,,,,,,,,,,,,,,,,,,,,,,,,,,,,,,,,,,,/muse/elements/blink
2020-11-15 15:40:01.660,,,,,,,,,,,,,,,,,,,,,,,,,,,,,,,,,,,,,,/muse/elements/blink
2020-11-15 15:40:01.755,,,,,,,,,,,,,,,,,,,,,,,,,,,,,,,,,,,,,,/muse/elements/jaw_clench
2020-11-15 15:40:01.987,1.3426301,0.21581608,0.7155331,0.9738422,0.978455,0.21226497,0.25962782,1.4757631,1.2630677,0.31957242,0.24518792,1.3766013,0.8294656,0.07765513,-0.31071585,1.1831269,0.7619959,-0.7500206,-0.5831457,0.8079,930.3663,838.0952,834.4689,971.8681,648.71796,-0.2537841796875,0.185791015625,0.9478759765625,-2.893524169921875,2.041168212890625,0.964508056640625,1,2.0,1.0,1.0,2.0,92.58
2020-11-15 15:40:02.292,,,,,,,,,,,,,,,,,,,,,,,,,,,,,,,,,,,,,,/muse/elements/blink
2020-11-15 15:40:02.996,1.3426301,0.5128985,0.7459707,0.9738422,0.978455,0.33002514,0.26682907,1.4757631,1.2630677,0.36666787,0.22266817,1.3766013,0.8294656,-0.14981867,-0.3065899,1.1831269,0.7619959,-0.13942714,-0.53058654,0.8079,1068.5714,822.381,817.1429,1188.2417,82.60073,-0.25054931640625,0.1832275390625,0.9471435546875,-2.489776611328125,2.093505859375,1.128997802734375,1,2.0,1.0,1.0,2.0,92.58
2020-11-15 15:40:04.001,0.26825505,0.3452216,0.483988,0.9738422,0.2930266,0.28161696,-0.21048073,1.4757631,0.4342986,0.49750605,-0.14618607,1.3766013,0.45621973,0.03795361,-0.39601234,1.1831269,0.051394634,-0.5428512,-0.8609583,0.8079,659.19415,845.34796,850.18317,632.6007,136.99634,-0.24871826171875,0.18231201171875,0.94537353515625,-2.40753173828125,1.68975830078125,0.95703125,1,1.0,1.0,1.0,1.0,92.58
2020-11-15 15:40:04.401,,,,,,,,,,,,,,,,,,,,,,,,,,,,,,,,,,,,,,/muse/elements/blink
2020-11-15 15:40:04.534,,,,,,,,,,,,,,,,,,,,,,,,,,,,,,,,,,,,,,/muse/elements/jaw_clench
2020-11-15 15:40:04.636,,,,,,,,,,,,,,,,,,,,,,,,,,,,,,,,,,,,,,/muse/elements/blink
2020-11-15 15:40:05.019,0.51227826,0.38358262,0.57416034,0.9738422,0.39034575,0.16823514,-0.15554677,1.4757631,0.3624595,0.445889,0.13159165,1.3766013,0.5152725,0.06239954,-0.11821665,1.1831269,0.23089252,-0.61883634,-0.68922335,0.8079,633.8095,853.8095,852.1978,449.2674,49.56044,-0.2645263671875,0.18316650390625,0.95269775390625,-2.452392578125,2.572021484375,-0.007476806640625,1,1.0,1.0,1.0,1.0,92.58
2020-11-15 15:40:05.139,,,,,,,,,,,,,,,,,,,,,,,,,,,,,,,,,,,,,,/muse/elements/jaw_clench
2020-11-15 15:40:05.339,,,,,,,,,,,,,,,,,,,,,,,,,,,,,,,,,,,,,,/muse/elements/blink
2020-11-15 15:40:05.506,,,,,,,,,,,,,,,,,,,,,,,,,,,,,,,,,,,,,,/muse/elements/jaw_clench
2020-11-15 15:40:05.641,,,,,,,,,,,,,,,,,,,,,,,,,,,,,,,,,,,,,,/muse/elements/blink
2020-11-15 15:40:05.741,,,,,,,,,,,,,,,,,,,,,,,,,,,,,,,,,,,,,,/muse/elements/jaw_clench
2020-11-15 15:40:06.038,0.66118914,0.45721626,0.48343673,0.9738422,0.3976671,0.2535477,-0.32172242,1.4757631,0.2761517,0.6983544,0.21092795,1.3766013,0.5978731,0.123001724,0.29622436,1.1831269,0.30060267,-0.39585936,-0.29311427,0.8079,594.3223,846.55676,892.8938,491.17215,73.73627,-0.27471923828125,0.186279296875,0.9398193359375,-2.5421142578125,2.355194091796875,1.443023681640625,1,1.0,1.0,1.0,1.0,92.58
2020-11-15 15:40:06.043,,,,,,,,,,,,,,,,,,,,,,,,,,,,,,,,,,,,,,/muse/elements/blink
2020-11-15 15:40:06.376,,,,,,,,,,,,,,,,,,,,,,,,,,,,,,,,,,,,,,/muse/elements/blink
2020-11-15 15:40:06.946,,,,,,,,,,,,,,,,,,,,,,,,,,,,,,,,,,,,,,/muse/elements/blink
2020-11-15 15:40:07.044,0.74456584,0.5641277,1.3139472,0.9738422,0.7239487,0.37585288,1.1889066,1.4757631,1.0588131,0.6963007,0.9472227,1.3766013,0.8889612,0.096779615,0.626942,1.1831269,0.62978745,-0.24949639,0.13239901,0.8079,819.9634,849.3773,859.85345,847.76556,538.315,-0.29522705078125,0.18658447265625,0.934814453125,-2.639312744140625,2.624359130859375,0.112152099609375,1,1.0,1.0,1.0,1.0,92.58
2020-11-15 15:40:07.952,,,,,,,,,,,,,,,,,,,,,,,,,,,,,,,,,,,,,,/muse/elements/blink
2020-11-15 15:40:08.052,0.8638206,-0.272854,0.8517248,0.9738422,0.7016882,0.2546292,0.5995108,1.4757631,1.0573089,0.57197124,0.8268644,1.3766013,0.8804164,0.06216867,0.32535896,1.1831269,0.6154728,-0.20547833,0.0012872146,0.8079,907.3993,848.1685,843.3333,962.6007,1627.033,-0.26556396484375,0.20831298828125,0.92413330078125,-3.70849609375,4.149627685546875,1.1065673828125,1,1.0,1.0,1.0,1.0,92.58
2020-11-15 15:40:08.219,,,,,,,,,,,,,,,,,,,,,,,,,,,,,,,,,,,,,,/muse/elements/blink
2020-11-15 15:40:08.219,,,,,,,,,,,,,,,,,,,,,,,,,,,,,,,,,,,,,,/muse/elements/jaw_clench
2020-11-15 15:40:08.386,,,,,,,,,,,,,,,,,,,,,,,,,,,,,,,,,,,,,,/muse/elements/jaw_clench
2020-11-15 15:40:08.788,,,,,,,,,,,,,,,,,,,,,,,,,,,,,,,,,,,,,,/muse/elements/blink
2020-11-15 15:40:09.071,0.8638206,0.33533755,0.21446021,0.9738422,0.7016882,0.33046797,0.0025780033,1.4757631,1.0573089,0.60790116,-0.029356837,1.3766013,0.8804164,0.13504954,-0.17485994,1.1831269,0.6154728,-0.21831909,-0.2014625,0.8079,898.5348,855.82416,828.8278,875.16486,1346.1904,-0.2889404296875,0.19073486328125,0.934326171875,-1.786956787109375,1.996307373046875,1.667327880859375,1,1.0,1.0,1.0,1.0,92.58
2020-11-15 15:40:09.257,,,,,,,,,,,,,,,,,,,,,,,,,,,,,,,,,,,,,,/muse/elements/blink
2020-11-15 15:40:10.092,1.1098078,0.5196663,-0.03646397,0.9738422,0.3324563,0.49187148,-0.07698065,1.4757631,0.66524845,0.56879836,-0.0154736545,1.3766013,0.63412976,0.09402824,-0.2987141,1.1831269,0.6465537,-0.42330113,-0.51782197,0.8079,1005.31134,842.52747,817.9487,1114.9084,139.41393,-0.281494140625,0.1912841796875,0.94097900390625,-2.2430419921875,1.9140625,1.0467529296875,1,2.0,1.0,1.0,2.0,92.48
2020-11-15 15:40:10.933,,,,,,,,,,,,,,,,,,,,,,,,,,,,,,,,,,,,,,/muse/elements/blink
2020-11-15 15:40:11.095,0.46743184,0.52841216,0.014936461,0.9738422,0.25191483,0.20246911,-0.24553,1.4757631,0.7583495,0.22257194,-0.075453326,1.3766013,0.622119,0.01783772,-0.12206751,1.1831269,0.2956736,-0.5714151,-0.43041313,0.8079,639.0476,857.4359,843.73627,536.30035,484.32236,-0.279541015625,0.19085693359375,0.93951416015625,-2.429962158203125,2.10845947265625,0.7476806640625,1,1.0,1.0,1.0,1.0,92.48
2020-11-15 15:40:11.235,,,,,,,,,,,,,,,,,,,,,,,,,,,,,,,,,,,,,,/muse/elements/blink
2020-11-15 15:40:11.605,,,,,,,,,,,,,,,,,,,,,,,,,,,,,,,,,,,,,,/muse/elements/blink
2020-11-15 15:40:11.703,,,,,,,,,,,,,,,,,,,,,,,,,,,,,,,,,,,,,,/muse/elements/blink
2020-11-15 15:40:12.100,0.66315603,0.4702064,0.13102293,0.9738422,0.35092705,0.4416924,-0.08939803,1.4757631,0.7497704,0.633664,0.1825796,1.3766013,0.6097992,-0.03952768,-0.11388524,1.1831269,0.09378997,-0.6252121,-0.28910172,0.8079,972.27106,851.39197,820.7692,1047.619,1133.8462,-0.27972412109375,0.1920166015625,0.9366455078125,-2.52716064453125,1.8243408203125,0.994415283203125,1,1.0,1.0,1.0,1.0,92.48
2020-11-15 15:40:12.473,,,,,,,,,,,,,,,,,,,,,,,,,,,,,,,,,,,,,,/muse/elements/blink
2020-11-15 15:40:13.077,,,,,,,,,,,,,,,,,,,,,,,,,,,,,,,,,,,,,,/muse/elements/blink
2020-11-15 15:40:13.108,0.6065894,0.4278385,0.116554745,0.9738422,0.56906134,0.34023637,0.023615094,1.4757631,0.6914085,0.67386144,0.4484152,1.3766013,0.7120727,0.11284317,-0.2682486,1.1831269,0.5477727,-0.52411205,-0.37818146,0.8079,781.685,857.8388,832.8571,795.38464,316.30035,-0.2744140625,0.1893310546875,0.93841552734375,-2.714080810546875,1.861724853515625,0.814971923828125,1,1.0,1.0,1.0,1.0,92.48
2020-11-15 15:40:13.244,,,,,,,,,,,,,,,,,,,,,,,,,,,,,,,,,,,,,,/muse/elements/blink
2020-11-15 15:40:14.110,0.45713726,0.20114431,0.265149,0.9738422,0.3492876,0.24428707,0.10212192,1.4757631,0.7626015,0.5170542,0.44804123,1.3766013,0.59030783,0.090377495,-0.37639865,1.1831269,0.61831486,-0.31126806,-0.46693584,0.8079,805.05493,850.18317,844.1392,810.293,244.98169,-0.273193359375,0.18963623046875,0.9400634765625,-2.811279296875,1.9140625,0.725250244140625,1,1.0,1.0,1.0,1.0,92.48
2020-11-15 15:40:14.314,,,,,,,,,,,,,,,,,,,,,,,,,,,,,,,,,,,,,,/muse/elements/blink
2020-11-15 15:40:14.987,,,,,,,,,,,,,,,,,,,,,,,,,,,,,,,,,,,,,,/muse/elements/blink
2020-11-15 15:40:15.118,0.13777669,0.14648739,0.19390891,1.591665,0.26782975,0.33476585,-0.09381026,1.6091459,0.91733325,0.58621335,0.079748474,1.9250491,0.5618005,-0.023381617,-0.21438102,1.2412379,0.5408977,-0.24952583,-0.27123633,0.5612702,1019.81683,848.5714,820.3663,1114.5055,1344.5787,-0.2781982421875,0.19378662109375,0.942626953125,-2.4224853515625,1.607513427734375,1.622467041015625,1,1.0,1.0,1.0,1.0,92.48
2020-11-15 15:40:15.751,,,,,,,,,,,,,,,,,,,,,,,,,,,,,,,,,,,,,,/muse/elements/blink
2020-11-15 15:40:16.138,0.5178142,0.25344718,0.05177471,1.4129267,0.4764281,0.30595708,-0.27614933,1.362737,0.73730755,0.6124005,-0.27357087,1.9250491,0.6614563,0.10111315,-0.17280032,1.1714953,0.32212523,-0.41199616,-0.37198293,0.604633,658.7912,860.2564,848.5714,552.01465,0.0,-0.27197265625,0.1881103515625,0.93768310546875,-2.609405517578125,1.966400146484375,1.054229736328125,1,1.0,1.0,1.0,1.0,92.48
2020-11-15 15:40:17.095,,,,,,,,,,,,,,,,,,,,,,,,,,,,,,,,,,,,,,/muse/elements/blink
2020-11-15 15:40:17.159,0.043822005,-0.31075191,0.22899702,1.2209958,0.39969283,0.23497745,-0.15192139,0.7378589,0.9455181,0.5912405,0.10848481,0.9425655,0.6416611,0.092624806,-0.17568263,1.1150172,0.32086024,-0.35958457,-0.59363747,0.6698297,624.5421,861.06226,849.3773,481.90475,375.93405,-0.2767333984375,0.19122314453125,0.94061279296875,-2.803802490234375,2.579498291015625,0.710296630859375,1,1.0,1.0,1.0,1.0,92.48
2020-11-15 15:40:17.330,,,,,,,,,,,,,,,,,,,,,,,,,,,,,,,,,,,,,,/muse/elements/jaw_clench
2020-11-15 15:40:17.499,,,,,,,,,,,,,,,,,,,,,,,,,,,,,,,,,,,,,,/muse/elements/jaw_clench
2020-11-15 15:40:17.799,,,,,,,,,,,,,,,,,,,,,,,,,,,,,,,,,,,,,,/muse/elements/blink
2020-11-15 15:40:18.032,,,,,,,,,,,,,,,,,,,,,,,,,,,,,,,,,,,,,,/muse/elements/blink
2020-11-15 15:40:18.163,0.6311786,-0.14015822,0.23440903,1.1972187,0.44760743,0.003247099,-0.211865,1.2661626,0.9637182,0.46804988,0.25471842,1.343497,0.6981531,0.2696409,-0.05367483,1.0865942,0.4312684,-0.25023243,-0.3566023,0.6970636,821.1722,858.6447,834.0659,797.8022,1299.8535,-0.28338623046875,0.19207763671875,0.9375,-1.973876953125,2.9010009765625,0.8074951171875,1,1.0,1.0,1.0,1.0,92.48
2020-11-15 15:40:18.402,,,,,,,,,,,,,,,,,,,,,,,,,,,,,,,,,,,,,,/muse/elements/blink
2020-11-15 15:40:18.872,,,,,,,,,,,,,,,,,,,,,,,,,,,,,,,,,,,,,,/muse/elements/blink
2020-11-15 15:40:19.167,1.210555,0.4400479,0.2004271,1.1040583,0.9889183,0.44259447,-0.2603266,1.0180668,0.77336496,0.66683006,0.09191923,1.3230016,0.98453224,0.22923201,-0.055379033,0.95939416,0.8100282,-0.135412,-0.26760325,0.6470701,718.022,857.03296,848.97437,682.5641,147.47253,-0.27691650390625,0.18994140625,0.9385986328125,-2.609405517578125,0.35888671875,1.71966552734375,1,1.0,1.0,1.0,1.0,92.48
2020-11-15 15:40:19.440,,,,,,,,,,,,,,,,,,,,,,,,,,,,,,,,,,,,,,/muse/elements/blink
2020-11-15 15:40:20.042,,,,,,,,,,,,,,,,,,,,,,,,,,,,,,,,,,,,,,/muse/elements/blink
2020-11-15 15:40:20.042,,,,,,,,,,,,,,,,,,,,,,,,,,,,,,,,,,,,,,/muse/elements/jaw_clench
2020-11-15 15:40:20.173,1.2287675,0.83814675,0.95772284,1.4080791,1.3789773,0.6046597,0.32557866,1.256897,0.8032895,0.6963434,0.3598231,1.0664432,0.9485421,0.14394368,-0.03328766,0.9345346,0.82182425,-0.12877716,-0.35435528,0.60808945,971.06226,844.5421,828.4249,1096.3737,182.12454,-0.2818603515625,0.189208984375,0.9393310546875,-2.385101318359375,2.100982666015625,0.97198486328125,1,1.0,1.0,1.0,1.0,92.34
2020-11-15 15:40:20.246,,,,,,,,,,,,,,,,,,,,,,,,,,,,,,,,,,,,,,/muse/elements/jaw_clench
2020-11-15 15:40:20.678,,,,,,,,,,,,,,,,,,,,,,,,,,,,,,,,,,,,,,/muse/elements/blink
2020-11-15 15:40:21.079,,,,,,,,,,,,,,,,,,,,,,,,,,,,,,,,,,,,,,/muse/elements/blink
2020-11-15 15:40:21.180,1.284226,0.5712486,1.2447501,1.4080791,1.4486408,0.5677169,0.59400165,1.256897,0.7787516,0.53243273,0.32508886,1.0664432,0.81065094,0.25094593,0.073141284,0.9345346,0.7374003,-0.06988895,-0.22403072,0.60808945,960.18317,836.4835,834.4689,1065.348,161.17216,-0.2794189453125,0.193359375,0.937744140625,-1.79443359375,2.220611572265625,1.5850830078125,1,1.0,1.0,1.0,1.0,92.34
2020-11-15 15:40:21.485,,,,,,,,,,,,,,,,,,,,,,,,,,,,,,,,,,,,,,/muse/elements/blink
2020-11-15 15:40:21.985,,,,,,,,,,,,,,,,,,,,,,,,,,,,,,,,,,,,,,/muse/elements/blink
2020-11-15 15:40:22.183,0.7995564,0.50791454,0.5130102,1.2611475,1.1289122,0.29078937,-0.28026164,1.4933954,1.078646,0.3998555,0.025531812,1.3935639,0.806255,0.23147929,-0.16227156,0.89740044,0.7550997,-0.23198196,-0.3554194,0.49057868,956.1539,840.9158,832.4542,1049.2307,150.29305,-0.27880859375,0.189697265625,0.9384765625,-2.459869384765625,2.130889892578125,1.2261962890625,1,1.0,1.0,1.0,1.0,92.34
2020-11-15 15:40:22.709,,,,,,,,,,,,,,,,,,,,,,,,,,,,,,,,,,,,,,/muse/elements/blink
2020-11-15 15:40:22.940,,,,,,,,,,,,,,,,,,,,,,,,,,,,,,,,,,,,,,/muse/elements/blink
2020-11-15 15:40:23.042,,,,,,,,,,,,,,,,,,,,,,,,,,,,,,,,,,,,,,/muse/elements/jaw_clench
2020-11-15 15:40:23.200,0.5068136,0.30192345,0.21711355,1.3243108,0.33618593,0.12639861,-0.39848834,1.4482923,0.6146603,0.1793072,0.14660202,1.5164716,0.6803027,0.13369662,-0.40489316,0.916407,0.71516365,-0.32147044,-0.43642336,0.64901036,725.6777,845.34796,843.73627,678.5348,925.5311,-0.27655029296875,0.1905517578125,0.93853759765625,-2.190704345703125,2.46734619140625,1.457977294921875,1,1.0,1.0,1.0,1.0,92.34
2020-11-15 15:40:23.409,,,,,,,,,,,,,,,,,,,,,,,,,,,,,,,,,,,,,,/muse/elements/blink
2020-11-15 15:40:24.208,0.78494614,0.53269386,0.0024440337,1.2161733,0.42450708,0.11395617,-0.19969434,1.0934371,0.4932097,0.47512448,0.08976144,1.4074639,0.6814481,0.054635286,-0.41365075,0.802198,0.785502,-0.40194193,-0.39955837,0.8431448,979.5238,835.2747,817.5458,1098.3883,1500.1099,-0.280029296875,0.1934814453125,0.9375,-2.669219970703125,1.562652587890625,1.1962890625,1,1.0,1.0,1.0,1.0,92.34
2020-11-15 15:40:24.312,,,,,,,,,,,,,,,,,,,,,,,,,,,,,,,,,,,,,,/muse/elements/blink
2020-11-15 15:40:24.915,,,,,,,,,,,,,,,,,,,,,,,,,,,,,,,,,,,,,,/muse/elements/blink
2020-11-15 15:40:25.220,0.51210344,0.6948207,0.4745562,0.9322003,0.489299,0.36001587,0.14361194,0.68321216,0.33187976,0.41776177,0.18561314,0.8447648,0.4869994,-0.14227313,-0.463204,0.6842803,0.66712284,-0.65969,-0.7221533,0.7674344,919.4872,866.7033,819.5604,971.8681,852.1978,-0.28863525390625,0.19171142578125,0.9290771484375,-2.51220703125,1.614990234375,0.91217041015625,1,1.0,1.0,1.0,1.0,92.34
2020-11-15 15:40:25.250,,,,,,,,,,,,,,,,,,,,,,,,,,,,,,,,,,,,,,/muse/elements/blink
2020-11-15 15:40:25.355,,,,,,,,,,,,,,,,,,,,,,,,,,,,,,,,,,,,,,/muse/elements/jaw_clench
2020-11-15 15:40:25.862,,,,,,,,,,,,,,,,,,,,,,,,,,,,,,,,,,,,,,/muse/elements/blink
2020-11-15 15:40:26.054,,,,,,,,,,,,,,,,,,,,,,,,,,,,,,,,,,,,,,/muse/elements/blink
2020-11-15 15:40:26.255,1.1456028,0.6711069,1.0431663,1.3919874,1.0067174,0.23588933,0.6298452,1.4573,0.96876013,0.45710906,0.1476416,1.5982382,0.71703404,0.12491611,-0.18438424,1.1047195,0.8293263,-0.21450518,-0.16126052,0.7996925,929.15753,844.1392,828.8278,1016.5934,993.6264,-0.2767333984375,0.19976806640625,0.93499755859375,-3.03558349609375,2.22808837890625,0.665435791015625,1,1.0,1.0,1.0,1.0,92.34
2020-11-15 15:40:26.494,,,,,,,,,,,,,,,,,,,,,,,,,,,,,,,,,,,,,,/muse/elements/blink
2020-11-15 15:40:26.916,,,,,,,,,,,,,,,,,,,,,,,,,,,,,,,,,,,,,,/muse/elements/blink
2020-11-15 15:40:27.266,1.0960475,0.673563,0.7627249,1.2307005,0.90120643,0.28358912,0.49986947,0.8073878,0.8770778,0.42900255,-0.11823823,1.0934273,0.75029576,0.06950594,-0.25421545,0.9010202,0.58873266,-0.4142194,-0.69677925,0.5079736,948.9011,849.3773,817.5458,1043.1868,1123.773,-0.279296875,0.19317626953125,0.9417724609375,-2.026214599609375,1.876678466796875,1.577606201171875,1,1.0,1.0,1.0,1.0,92.34
2020-11-15 15:40:27.573,,,,,,,,,,,,,,,,,,,,,,,,,,,,,,,,,,,,,,/muse/elements/blink
2020-11-15 15:40:28.010,,,,,,,,,,,,,,,,,,,,,,,,,,,,,,,,,,,,,,/muse/elements/blink
2020-11-15 15:40:28.283,-0.21854326,0.19839811,0.16949905,1.107131,-0.115619205,0.36894533,-0.16199362,0.6522461,0.30324754,0.28633916,-0.068716206,0.7336406,0.50812787,-0.13550495,0.007869618,0.6368508,0.33279803,-0.4803098,-0.42693898,0.32838812,780.07324,858.6447,843.73627,709.9634,1064.9451,-0.2779541015625,0.197021484375,0.9324951171875,-2.332763671875,1.4654541015625,1.248626708984375,1,1.0,1.0,1.0,1.0,92.34
2020-11-15 15:40:28.382,,,,,,,,,,,,,,,,,,,,,,,,,,,,,,,,,,,,,,/muse/elements/blink
2020-11-15 15:40:28.584,,,,,,,,,,,,,,,,,,,,,,,,,,,,,,,,,,,,,,/muse/elements/blink
2020-11-15 15:40:29.190,,,,,,,,,,,,,,,,,,,,,,,,,,,,,,,,,,,,,,/muse/elements/blink
2020-11-15 15:40:29.295,1.0665871,0.21195391,0.9997191,1.1862926,0.62411153,0.26145142,0.5684218,0.547916,0.76323676,0.31897783,0.6566489,0.90879697,0.7567217,-0.17030248,0.13290845,0.77333707,0.50556207,-0.26395607,-0.29434413,0.31995127,754.68866,866.7033,832.0513,716.4103,1021.4286,-0.2821044921875,0.2015380859375,0.9383544921875,-2.40753173828125,2.280426025390625,0.770111083984375,1,1.0,1.0,1.0,1.0,92.34
2020-11-15 15:40:29.388,,,,,,,,,,,,,,,,,,,,,,,,,,,,,,,,,,,,,,/muse/elements/blink
2020-11-15 15:40:29.619,,,,,,,,,,,,,,,,,,,,,,,,,,,,,,,,,,,,,,/muse/elements/blink
2020-11-15 15:40:29.790,,,,,,,,,,,,,,,,,,,,,,,,,,,,,,,,,,,,,,/muse/elements/blink
2020-11-15 15:40:29.991,,,,,,,,,,,,,,,,,,,,,,,,,,,,,,,,,,,,,,/muse/elements/blink
2020-11-15 15:40:30.323,0.7952794,0.5346491,1.1707602,1.2198952,0.5919723,0.045186013,0.7366576,0.60142124,0.7605707,0.2526359,0.6566489,0.88065326,0.82818085,0.033084404,0.10081558,0.7730802,0.5805103,-0.18728332,-0.31148472,0.5628853,786.52014,853.8095,841.31866,709.9634,979.12085,-0.28912353515625,0.19964599609375,0.93701171875,-2.011260986328125,1.98883056640625,1.07666015625,1,1.0,1.0,1.0,1.0,92.25
2020-11-15 15:40:30.328,,,,,,,,,,,,,,,,,,,,,,,,,,,,,,,,,,,,,,/muse/elements/blink
2020-11-15 15:40:30.595,,,,,,,,,,,,,,,,,,,,,,,,,,,,,,,,,,,,,,/muse/elements/blink
2020-11-15 15:40:31.329,0.5295261,0.8161704,0.35070986,1.3323245,0.43898204,0.35173053,0.022794275,0.6582741,0.096807264,0.15816127,-0.11808418,0.83861756,0.8732491,-0.040598262,-0.09051198,0.8403556,0.65643615,-0.16768093,-0.45338315,0.6821951,765.9707,853.00366,827.2161,666.04395,926.337,-0.28192138671875,0.1971435546875,0.93621826171875,-2.97576904296875,1.592559814453125,0.515899658203125,1,1.0,1.0,1.0,1.0,92.25
2020-11-15 15:40:31.832,,,,,,,,,,,,,,,,,,,,,,,,,,,,,,,,,,,,,,/muse/elements/blink
2020-11-15 15:40:32.130,,,,,,,,,,,,,,,,,,,,,,,,,,,,,,,,,,,,,,/muse/elements/blink
2020-11-15 15:40:32.334,,,,,,,,,,,,,,,,,,,,,,,,,,,,,,,,,,,,,,/muse/elements/blink
2020-11-15 15:40:32.347,0.5601725,0.74030703,0.53070575,1.3096182,0.56324947,0.31803504,-0.112612315,1.4651221,0.710023,0.38887912,-0.09265406,0.93973625,0.84431714,0.10090501,-0.38243958,0.76618737,0.8855528,-0.057017926,-0.27567106,0.734289,966.2271,864.2857,813.91943,1088.3151,1646.3737,-0.2750244140625,0.2022705078125,0.93792724609375,-2.01873779296875,2.011260986328125,0.500946044921875,1,1.0,1.0,1.0,1.0,92.25
2020-11-15 15:40:33.039,,,,,,,,,,,,,,,,,,,,,,,,,,,,,,,,,,,,,,/muse/elements/blink
2020-11-15 15:40:33.272,,,,,,,,,,,,,,,,,,,,,,,,,,,,,,,,,,,,,,/muse/elements/blink
2020-11-15 15:40:33.369,0.85460716,0.58640355,0.876714,1.3014638,0.8453787,0.32834896,0.28124946,1.353694,1.1620262,0.6976501,0.19463068,1.0294174,0.8135395,0.15958412,-0.2883221,0.77994496,0.89050484,0.112437084,-0.30019748,0.67416143,955.7509,846.1539,825.2015,1117.326,9.267399,-0.27581787109375,0.20233154296875,0.94036865234375,-2.115936279296875,2.130889892578125,0.79254150390625,1,1.0,1.0,1.0,1.0,92.25
2020-11-15 15:40:33.777,,,,,,,,,,,,,,,,,,,,,,,,,,,,,,,,,,,,,,/muse/elements/blink
2020-11-15 15:40:33.974,,,,,,,,,,,,,,,,,,,,,,,,,,,,,,,,,,,,,,/muse/elements/blink
2020-11-15 15:40:34.378,1.0947877,1.0408818,1.0646014,1.2510322,1.0800576,0.41900006,0.55387586,1.2240417,1.15007,0.5471585,0.23797417,1.0162157,0.76285166,0.13727333,-0.18387103,0.78817666,0.89782864,0.031576242,-0.36143476,0.5718301,674.5055,886.8498,845.34796,650.32965,27.399267,-0.27117919921875,0.19940185546875,0.9395751953125,-1.592559814453125,1.03179931640625,1.86920166015625,1,1.0,1.0,1.0,1.0,92.25
2020-11-15 15:40:34.880,,,,,,,,,,,,,,,,,,,,,,,,,,,,,,,,,,,,,,/muse/elements/blink
2020-11-15 15:40:35.210,,,,,,,,,,,,,,,,,,,,,,,,,,,,,,,,,,,,,,/muse/elements/blink
2020-11-15 15:40:35.412,1.0947877,1.0938773,0.49541312,1.2139325,1.0800576,0.50423574,0.17090163,1.1737702,1.15007,0.5277759,0.07451407,1.0667639,0.76285166,0.29503614,-0.17260681,0.98193556,0.89782864,0.22397318,-0.41524723,0.7134234,897.326,837.28937,828.022,1012.96704,942.4542,-0.27410888671875,0.2081298828125,0.94140625,-1.906585693359375,1.57012939453125,1.24114990234375,1,1.0,1.0,1.0,1.0,92.25
2020-11-15 15:40:35.418,,,,,,,,,,,,,,,,,,,,,,,,,,,,,,,,,,,,,,/muse/elements/blink
2020-11-15 15:40:35.917,,,,,,,,,,,,,,,,,,,,,,,,,,,,,,,,,,,,,,/muse/elements/blink
2020-11-15 15:40:36.419,1.0947877,0.9829282,0.5577647,1.1761737,1.0800576,0.5205861,0.35947293,1.1019763,1.15007,0.5275355,0.18565692,0.94111973,0.76285166,0.20076926,-0.2936331,0.94697005,0.89782864,-0.0032479235,-0.49008384,0.7475771,684.57874,844.5421,845.34796,570.9524,94.28571,-0.27191162109375,0.2003173828125,0.93896484375,-1.936492919921875,1.92901611328125,1.218719482421875,1,1.0,1.0,1.0,1.0,92.25
2020-11-15 15:40:37.125,,,,,,,,,,,,,,,,,,,,,,,,,,,,,,,,,,,,,,/muse/elements/blink
2020-11-15 15:40:37.420,1.0947877,0.5193859,0.47503254,1.1761737,1.0800576,0.141163,-0.10480673,1.1019763,1.15007,0.3493025,0.09775829,0.94111973,0.76285166,0.16759703,-0.35064575,0.94697005,0.89782864,-0.23354039,-0.4950231,0.7475771,681.3553,848.1685,867.1062,565.31134,0.0,-0.27764892578125,0.18682861328125,0.933349609375,-2.9010009765625,1.54022216796875,0.73272705078125,1,1.0,1.0,1.0,1.0,92.25
2020-11-15 15:40:37.525,,,,,,,,,,,,,,,,,,,,,,,,,,,,,,,,,,,,,,/muse/elements/blink
2020-11-15 15:40:37.724,,,,,,,,,,,,,,,,,,,,,,,,,,,,,,,,,,,,,,/muse/elements/blink
2020-11-15 15:40:38.229,,,,,,,,,,,,,,,,,,,,,,,,,,,,,,,,,,,,,,/muse/elements/blink
2020-11-15 15:40:38.429,1.0947877,0.8897047,0.36281982,1.1761737,1.0800576,0.114128955,-0.14012663,1.1019763,1.15007,0.31037486,0.28627884,0.94111973,0.76285166,0.14268634,0.31967214,0.94697005,0.89782864,-0.02362201,0.16349944,0.7475771,705.9341,849.3773,838.9011,692.23444,910.6227,-0.2816162109375,0.1856689453125,0.94158935546875,-2.332763671875,0.97198486328125,1.256103515625,1,2.0,1.0,1.0,2.0,92.25
2020-11-15 15:40:38.529,,,,,,,,,,,,,,,,,,,,,,,,,,,,,,,,,,,,,,/muse/elements/blink
2020-11-15 15:40:38.832,,,,,,,,,,,,,,,,,,,,,,,,,,,,,,,,,,,,,,/muse/elements/jaw_clench
2020-11-15 15:40:38.933,,,,,,,,,,,,,,,,,,,,,,,,,,,,,,,,,,,,,,/muse/elements/blink
2020-11-15 15:40:39.035,,,,,,,,,,,,,,,,,,,,,,,,,,,,,,,,,,,,,,/muse/elements/jaw_clench
2020-11-15 15:40:39.447,1.0947877,0.8138105,0.38285527,1.1761737,1.0800576,-0.0068773553,0.26326618,1.1019763,1.15007,0.27263093,0.23968826,0.94111973,0.76285166,0.19648309,0.59335464,0.94697005,0.89782864,0.035055228,0.39134437,0.7475771,744.21246,853.4066,874.35895,666.4469,799.011,-0.2808837890625,0.194580078125,0.93914794921875,-2.444915771484375,-0.037384033203125,0.680389404296875,1,2.0,1.0,1.0,2.0,92.25
2020-11-15 15:40:39.617,,,,,,,,,,,,,,,,,,,,,,,,,,,,,,,,,,,,,,/muse/elements/blink
2020-11-15 15:40:40.018,,,,,,,,,,,,,,,,,,,,,,,,,,,,,,,,,,,,,,/muse/elements/blink
2020-11-15 15:40:40.289,,,,,,,,,,,,,,,,,,,,,,,,,,,,,,,,,,,,,,/muse/elements/blink
2020-11-15 15:40:40.321,,,,,,,,,,,,,,,,,,,,,,,,,,,,,,,,,,,,,,/muse/elements/blink
2020-11-15 15:40:40.466,1.0947877,0.99500847,0.6041349,1.1761737,1.0800576,0.16939276,0.44430393,1.1019763,1.15007,0.4581708,0.051903587,0.94111973,0.76285166,0.16730961,0.65164703,0.94697005,0.89782864,-0.18009983,0.5198619,0.7475771,884.43225,844.1392,820.3663,932.381,1627.8389,-0.27569580078125,0.1968994140625,0.93536376953125,-2.6617431640625,1.861724853515625,1.368255615234375,1,2.0,1.0,1.0,2.0,92.13
2020-11-15 15:40:41.294,,,,,,,,,,,,,,,,,,,,,,,,,,,,,,,,,,,,,,/muse/elements/blink
2020-11-15 15:40:41.487,1.0947877,0.51850027,0.1914791,1.1819936,1.0800576,0.0029917054,0.20409021,1.5155418,1.15007,0.41699773,0.19591264,1.1721085,0.76285166,0.012807894,-0.08604146,0.97727025,0.89782864,-0.34020483,-0.28852263,0.769464,973.47986,832.0513,860.2564,1096.3737,111.20879,-0.27020263671875,0.20062255859375,0.941650390625,-2.549591064453125,1.338348388671875,0.8673095703125,1,1.0,1.0,1.0,1.0,92.13
2020-11-15 15:40:41.700,,,,,,,,,,,,,,,,,,,,,,,,,,,,,,,,,,,,,,/muse/elements/blink
2020-11-15 15:40:42.295,,,,,,,,,,,,,,,,,,,,,,,,,,,,,,,,,,,,,,/muse/elements/blink
2020-11-15 15:40:42.495,1.0947877,0.71194184,0.18708664,1.1819936,1.0800576,0.22365396,0.14242119,1.5155418,1.15007,0.38214555,0.12785746,1.1721085,0.76285166,-0.034713026,-0.10276034,0.97727025,0.89782864,-0.36863995,-0.31611004,0.769464,902.96704,843.3333,804.65204,1043.9927,147.87546,-0.27874755859375,0.19915771484375,0.9447021484375,-2.325286865234375,1.54022216796875,1.487884521484375,1,1.0,1.0,1.0,1.0,92.13
2020-11-15 15:40:42.597,,,,,,,,,,,,,,,,,,,,,,,,,,,,,,,,,,,,,,/muse/elements/blink
2020-11-15 15:40:43.432,,,,,,,,,,,,,,,,,,,,,,,,,,,,,,,,,,,,,,/muse/elements/blink
2020-11-15 15:40:43.501,1.0947877,0.4118976,0.21768463,1.1819936,1.0800576,-0.17853196,0.06452806,1.5155418,1.15007,0.27876404,0.08576884,1.1721085,0.76285166,-0.07144665,-0.11019523,0.97727025,0.89782864,-0.25247785,-0.35551772,0.769464,978.315,829.6337,816.337,1079.8535,1029.4872,-0.27618408203125,0.19451904296875,0.93914794921875,-2.8411865234375,1.8243408203125,0.770111083984375,1,1.0,1.0,1.0,1.0,92.13
2020-11-15 15:40:43.699,,,,,,,,,,,,,,,,,,,,,,,,,,,,,,,,,,,,,,/muse/elements/blink
2020-11-15 15:40:44.303,,,,,,,,,,,,,,,,,,,,,,,,,,,,,,,,,,,,,,/muse/elements/blink
2020-11-15 15:40:44.408,,,,,,,,,,,,,,,,,,,,,,,,,,,,,,,,,,,,,,/muse/elements/blink
2020-11-15 15:40:44.508,1.0947877,0.6836364,0.7378086,1.1819936,1.0800576,-0.06480838,0.22353019,1.5155418,1.15007,0.31772596,0.22418931,1.1721085,0.76285166,-0.067572735,-0.3213245,0.97727025,0.89782864,-0.36859623,-0.86646277,0.769464,767.98535,849.3773,830.4396,750.65936,193.80952,-0.27862548828125,0.19317626953125,0.93670654296875,-2.758941650390625,2.160797119140625,1.03179931640625,1,2.0,1.0,1.0,2.0,92.13
2020-11-15 15:40:45.539,0.1713183,0.49426106,0.51120955,0.9122433,0.27177185,-0.098035604,0.07413003,0.6845334,0.13669674,0.29800656,0.24234411,0.61736727,0.7068691,-0.012558521,-0.38094977,0.8792557,0.6324458,-0.27810746,-0.8800285,0.6775347,805.05493,846.1539,837.6923,795.78754,372.71063,-0.2818603515625,0.18878173828125,0.9373779296875,-2.4224853515625,1.966400146484375,1.18133544921875,1,1.0,1.0,1.0,1.0,92.13
2020-11-15 15:40:45.741,,,,,,,,,,,,,,,,,,,,,,,,,,,,,,,,,,,,,,/muse/elements/blink
2020-11-15 15:40:46.182,,,,,,,,,,,,,,,,,,,,,,,,,,,,,,,,,,,,,,/muse/elements/blink
2020-11-15 15:40:46.546,0.2139399,0.19218032,0.09228073,0.9269887,0.2990225,0.14873408,-0.2076824,0.69608325,0.18543255,0.45452946,0.21427011,0.6566867,0.7886819,-0.14375883,-0.35115987,0.9256511,0.61145616,-0.48921162,-0.8355424,0.6567522,702.71063,856.2271,865.09155,579.81683,0.0,-0.26885986328125,0.18646240234375,0.93951416015625,-2.4822998046875,2.6617431640625,0.9869384765625,1,1.0,1.0,1.0,1.0,92.13
2020-11-15 15:40:47.547,0.28187937,0.4091186,0.91041595,0.92900294,0.29824716,0.4229346,0.36402768,0.7017077,0.15846184,0.4426439,0.3361741,0.6351579,0.8489934,-0.2556761,-0.20652854,0.95327675,0.52023786,-0.4708324,-0.38568163,0.6496074,849.3773,854.21246,827.2161,902.5641,678.1319,-0.2763671875,0.18524169921875,0.9453125,-1.562652587890625,2.1533203125,1.74957275390625,1,1.0,1.0,1.0,1.0,92.13
2020-11-15 15:40:48.422,,,,,,,,,,,,,,,,,,,,,,,,,,,,,,,,,,,,,,/muse/elements/blink
2020-11-15 15:40:48.551,0.517761,-0.14117089,0.7599823,0.984226,-0.09856165,1.7157593E-4,-0.06133012,1.276488,-0.0515626,0.20032823,-0.06671505,1.0626545,0.4741179,-0.20618878,-0.2863968,0.7789091,0.46836662,-0.62753433,-0.7442302,0.43935564,693.44324,848.97437,844.94507,579.41394,489.1575,-0.27197265625,0.1904296875,0.94305419921875,-1.83929443359375,2.67669677734375,0.814971923828125,1,1.0,1.0,1.0,1.0,92.13
2020-11-15 15:40:48.791,,,,,,,,,,,,,,,,,,,,,,,,,,,,,,,,,,,,,,/muse/elements/blink
2020-11-15 15:40:49.026,,,,,,,,,,,,,,,,,,,,,,,,,,,,,,,,,,,,,,/muse/elements/blink
2020-11-15 15:40:49.558,0.30211923,0.39566472,0.44537792,1.0443403,-0.042904645,0.3912865,-0.17852049,1.0725404,-0.122510895,0.19771427,-0.15482709,0.89763856,0.5389968,-0.13252276,-0.2512065,0.6659037,0.26729825,-0.44149467,-0.5769534,0.3632049,678.5348,852.1978,845.34796,563.69965,314.2857,-0.26861572265625,0.1876220703125,0.9420166015625,-2.452392578125,2.5421142578125,0.859832763671875,1,1.0,1.0,1.0,1.0,92.05
2020-11-15 15:40:50.099,,,,,,,,,,,,,,,,,,,,,,,,,,,,,,,,,,,,,,/muse/elements/blink
2020-11-15 15:40:50.430,,,,,,,,,,,,,,,,,,,,,,,,,,,,,,,,,,,,,,/muse/elements/blink
2020-11-15 15:40:50.562,1.2042637,0.7059776,0.16364826,1.0443403,0.7214096,0.42919305,0.051246647,1.0725404,0.37997675,0.32040432,0.22053206,0.89763856,1.1187133,-0.13201348,-0.3388883,0.6659037,0.61888695,-0.3906257,-0.5179404,0.3632049,772.8205,843.73627,843.73627,762.3443,1183.0037,-0.26263427734375,0.19281005859375,0.94903564453125,-2.1234130859375,1.128997802734375,1.09161376953125,1,1.0,1.0,1.0,1.0,92.05
2020-11-15 15:40:50.603,,,,,,,,,,,,,,,,,,,,,,,,,,,,,,,,,,,,,,/muse/elements/blink
2020-11-15 15:40:50.870,,,,,,,,,,,,,,,,,,,,,,,,,,,,,,,,,,,,,,/muse/elements/blink
2020-11-15 15:40:51.566,1.2042637,0.66580564,0.43632376,1.0050452,0.7214096,0.19836587,0.23904422,0.7751267,0.37997675,0.34222305,0.49731693,0.99410653,1.1187133,-0.17783351,-0.34128073,0.7487092,0.61888695,-0.47892594,-0.58934116,0.743325,672.49084,853.00366,853.4066,566.1172,14.102564,-0.27178955078125,0.1927490234375,0.935302734375,-3.00567626953125,2.07855224609375,0.4486083984375,1,1.0,1.0,1.0,1.0,92.05
2020-11-15 15:40:51.703,,,,,,,,,,,,,,,,,,,,,,,,,,,,,,,,,,,,,,/muse/elements/blink
2020-11-15 15:40:52.007,,,,,,,,,,,,,,,,,,,,,,,,,,,,,,,,,,,,,,/muse/elements/blink
2020-11-15 15:40:52.570,1.0816673,0.40515372,0.6258241,1.0136694,0.5525294,0.24539861,0.22089386,0.6328508,0.31319162,0.1296038,0.37786636,0.96992075,1.1179136,-0.12554906,-0.20237339,0.7673644,0.9283083,-0.4693306,-0.6631241,0.7392325,917.47253,839.707,821.978,985.56775,1214.8352,-0.26220703125,0.190673828125,0.9454345703125,-2.19818115234375,2.609405517578125,1.158905029296875,1,1.0,1.0,1.0,1.0,92.05
2020-11-15 15:40:52.615,,,,,,,,,,,,,,,,,,,,,,,,,,,,,,,,,,,,,,/muse/elements/blink
2020-11-15 15:40:53.146,,,,,,,,,,,,,,,,,,,,,,,,,,,,,,,,,,,,,,/muse/elements/blink
2020-11-15 15:40:53.575,1.0816673,0.44537133,0.53402334,1.0074155,0.5525294,-0.16006465,-0.109130174,0.56730723,0.31319162,0.03230858,0.024413737,0.83972275,1.1179136,-0.17238699,-0.44441527,0.8045712,0.9283083,-0.4972116,-0.7448837,0.7642919,916.6667,837.6923,827.619,967.4359,51.17216,-0.26922607421875,0.18682861328125,0.9405517578125,-2.489776611328125,2.175750732421875,0.9869384765625,1,1.0,1.0,1.0,1.0,92.05
2020-11-15 15:40:54.589,0.69559014,0.44885492,0.5007987,1.0074155,0.82340485,-0.07723904,0.081986435,0.56730723,1.0590779,0.2589311,0.0721993,0.83972275,0.8810894,-0.08184006,-0.38135853,0.8045712,0.8815993,-0.24822992,-0.42338774,0.7642919,1011.75824,844.94507,823.5897,1104.0293,65.27473,-0.2723388671875,0.1912841796875,0.9443359375,-2.310333251953125,1.936492919921875,1.09161376953125,1,1.0,1.0,1.0,1.0,92.05
2020-11-15 15:40:54.953,,,,,,,,,,,,,,,,,,,,,,,,,,,,,,,,,,,,,,/muse/elements/blink
2020-11-15 15:40:55.621,0.30603236,0.11048081,0.008230915,0.9719232,0.49026993,0.08461176,-0.07377929,0.90770465,0.914873,0.5298356,0.0447238,0.68277454,0.7345789,-0.14156544,-0.33993903,0.7386297,0.9532936,-0.1274905,-0.3706071,0.7065485,968.24176,828.8278,831.6484,1074.2124,155.53113,-0.27142333984375,0.18609619140625,0.9429931640625,-2.654266357421875,2.026214599609375,0.9271240234375,1,1.0,1.0,1.0,1.0,92.05
2020-11-15 15:40:56.627,0.38558322,0.018979795,0.45035362,1.0350109,0.71469384,0.22195551,-0.026569959,1.1259459,0.94279534,0.56544423,0.0032603315,1.0812377,0.69004416,-0.19323264,-0.42935917,0.7891249,0.9138429,-0.14840394,-0.46904433,0.7277966,646.30035,867.1062,860.2564,539.5238,375.93405,-0.27099609375,0.19146728515625,0.93963623046875,-2.624359130859375,2.624359130859375,0.3887939453125,1,1.0,1.0,1.0,1.0,92.05
2020-11-15 15:40:56.695,,,,,,,,,,,,,,,,,,,,,,,,,,,,,,,,,,,,,,/muse/elements/blink
2020-11-15 15:40:57.133,,,,,,,,,,,,,,,,,,,,,,,,,,,,,,,,,,,,,,/muse/elements/blink
2020-11-15 15:40:57.636,0.47195488,0.3914637,0.50471604,1.0621063,0.59420013,-0.033355657,-0.047964104,1.3172816,0.59688085,0.10002247,0.05040214,1.0535007,0.6534856,-0.13292603,-0.38143256,0.76894003,0.80467886,-0.10169152,-0.43759236,0.7805696,807.47253,842.52747,836.8865,785.31134,273.58975,-0.2764892578125,0.1878662109375,0.94219970703125,-2.572021484375,2.1234130859375,0.9869384765625,1,1.0,1.0,1.0,1.0,92.05
2020-11-15 15:40:57.835,,,,,,,,,,,,,,,,,,,,,,,,,,,,,,,,,,,,,,/muse/elements/blink
2020-11-15 15:40:58.665,0.47195488,0.6443008,0.814678,1.0621063,0.59420013,-0.11503968,0.1377545,1.3172816,0.59688085,-0.012273315,0.063626386,1.0535007,0.6534856,-0.17902161,-0.1814749,0.76894003,0.80467886,0.01771827,-0.4177079,0.7805696,808.68134,836.4835,846.1539,806.26373,410.18314,-0.2879638671875,0.17987060546875,0.93780517578125,-2.818756103515625,2.848663330078125,1.31591796875,1,1.0,1.0,1.0,1.0,92.05
2020-11-15 15:40:58.769,,,,,,,,,,,,,,,,,,,,,,,,,,,,,,,,,,,,,,/muse/elements/blink
2020-11-15 15:40:59.243,,,,,,,,,,,,,,,,,,,,,,,,,,,,,,,,,,,,,,/muse/elements/blink
2020-11-15 15:40:59.481,,,,,,,,,,,,,,,,,,,,,,,,,,,,,,,,,,,,,,/muse/elements/jaw_clench
2020-11-15 15:40:59.670,0.47195488,0.73025846,0.7323217,1.0621063,0.59420013,0.40257874,0.17494227,1.3172816,0.59688085,0.26135772,-0.04021913,1.0535007,0.6534856,-0.08713323,-0.22171658,0.76894003,0.80467886,-0.024916636,-0.40223747,0.7805696,693.8461,859.45056,857.4359,570.14655,0.0,-0.29046630859375,0.1905517578125,0.93603515625,-2.332763671875,2.5421142578125,0.8074951171875,1,2.0,1.0,1.0,2.0,91.92
2020-11-15 15:41:00.674,0.47195488,0.6590106,0.9440094,1.0621063,0.59420013,0.45171294,0.18620194,1.3172816,0.59688085,0.29659933,0.35980904,1.0535007,0.6534856,0.051471174,-0.06917817,0.76894003,0.80467886,-0.021258892,-0.42864156,0.7805696,914.2491,851.39197,834.87177,972.674,92.271065,-0.2886962890625,0.193359375,0.935791015625,-2.51220703125,1.876678466796875,0.777587890625,1,2.0,1.0,1.0,2.0,91.92
2020-11-15 15:41:01.685,-0.46915588,0.78909624,0.63326645,1.0621063,0.11573531,0.7517563,0.31823415,1.3172816,0.63580465,0.5191628,0.24260658,1.0535007,0.77285045,-0.14407161,-0.22712259,0.76894003,0.97337043,-0.426612,-0.8428109,0.7805696,726.08057,857.03296,845.7509,649.5238,569.34064,-0.28643798828125,0.193115234375,0.93585205078125,-2.444915771484375,2.25799560546875,0.859832763671875,1,2.0,1.0,1.0,2.0,91.92
2020-11-15 15:41:02.703,0.049197443,0.5618607,-0.07465127,1.19197,0.09190133,0.06345677,-0.13577071,0.9534209,0.72540426,0.23864035,-0.0058155605,1.1839521,0.73936427,-0.14256342,-0.32232818,0.7853869,0.9058681,-0.5268109,-0.8606764,0.620981,849.3773,853.8095,861.06226,822.7839,1376.0073,-0.318359375,0.21514892578125,0.907470703125,7.888031005859375,5.45806884765625,8.635711669921875,1,1.0,1.0,1.0,1.0,91.92
2020-11-15 15:41:02.890,,,,,,,,,,,,,,,,,,,,,,,,,,,,,,,,,,,,,,/muse/elements/jaw_clench
2020-11-15 15:41:03.294,,,,,,,,,,,,,,,,,,,,,,,,,,,,,,,,,,,,,,/muse/elements/jaw_clench
2020-11-15 15:41:03.393,,,,,,,,,,,,,,,,,,,,,,,,,,,,,,,,,,,,,,/muse/elements/blink
2020-11-15 15:41:03.493,,,,,,,,,,,,,,,,,,,,,,,,,,,,,,,,,,,,,,/muse/elements/jaw_clench
2020-11-15 15:41:03.723,0.27884284,0.87658864,1.0710151,1.3609223,0.06668301,0.22304645,0.6955409,1.1296784,0.61009353,0.32170767,0.61610585,1.380392,0.70307875,0.17795448,0.004541968,0.9813009,0.825908,-0.09547826,-0.023763256,0.8755941,815.12823,844.1392,842.9304,784.5055,1250.2931,-0.3204345703125,0.2823486328125,0.9063720703125,-2.82623291015625,1.487884521484375,0.6878662109375,1,1.0,1.0,1.0,1.0,91.92
2020-11-15 15:41:04.098,,,,,,,,,,,,,,,,,,,,,,,,,,,,,,,,,,,,,,/muse/elements/blink
2020-11-15 15:41:04.363,,,,,,,,,,,,,,,,,,,,,,,,,,,,,,,,,,,,,,/muse/elements/jaw_clench
2020-11-15 15:41:04.467,,,,,,,,,,,,,,,,,,,,,,,,,,,,,,,,,,,,,,/muse/elements/blink
2020-11-15 15:41:04.702,,,,,,,,,,,,,,,,,,,,,,,,,,,,,,,,,,,,,,/muse/elements/blink
2020-11-15 15:41:04.727,0.27884284,0.85077,1.503175,1.4844522,0.06668301,0.44734004,1.084079,1.4072251,0.61009353,0.49820703,0.61610585,1.5729526,0.70307875,0.37429577,0.31282774,1.2076713,0.825908,-0.038166843,0.31872803,1.0172393,964.61536,900.9524,832.0513,965.82416,1095.1648,-0.24151611328125,0.2716064453125,0.915283203125,-2.086029052734375,25.61553955078125,-5.66741943359375,1,1.0,1.0,1.0,1.0,91.92
2020-11-15 15:41:04.968,,,,,,,,,,,,,,,,,,,,,,,,,,,,,,,,,,,,,,/muse/elements/blink
2020-11-15 15:41:05.569,,,,,,,,,,,,,,,,,,,,,,,,,,,,,,,,,,,,,,/muse/elements/blink
2020-11-15 15:41:05.739,0.27884284,0.66194665,0.9851185,1.551905,0.06668301,0.56697816,0.6833934,1.0002733,0.61009353,0.2959355,0.6586429,1.4485557,0.70307875,0.24860081,-0.1516137,1.0806783,0.825908,-0.12871167,-0.41817692,0.94474745,956.55676,832.0513,826.4103,1036.337,1289.3773,-0.30010986328125,0.24462890625,0.9237060546875,-2.953338623046875,2.27294921875,1.48040771484375,1,1.0,1.0,1.0,1.0,91.92
2020-11-15 15:41:06.746,0.27884284,0.65632164,0.94746184,1.551905,0.06668301,0.23402953,0.79261893,1.0002733,0.61009353,0.058490604,0.77098155,1.4485557,0.70307875,-0.0831257,-0.10947262,1.0806783,0.825908,-0.34348184,-0.46950626,0.94474745,969.45056,845.7509,822.381,1075.4213,1540.0,-0.32135009765625,0.23797607421875,0.91998291015625,-1.996307373046875,1.831817626953125,1.375732421875,1,1.0,1.0,1.0,1.0,91.92
2020-11-15 15:41:06.772,,,,,,,,,,,,,,,,,,,,,,,,,,,,,,,,,,,,,,/muse/elements/jaw_clench
2020-11-15 15:41:07.779,0.27884284,0.57446855,0.6928762,1.551905,0.06668301,0.07802949,0.2304037,1.0002733,0.61009353,0.35681945,0.2762675,1.4485557,0.70307875,-0.04417085,-0.25977072,1.0806783,0.825908,-0.2139436,-0.3547476,0.94474745,987.98535,842.1245,826.4103,1072.6007,1642.7472,-0.32080078125,0.23406982421875,0.91876220703125,-2.654266357421875,1.95892333984375,1.09161376953125,1,2.0,1.0,1.0,2.0,91.92
2020-11-15 15:41:08.453,,,,,,,,,,,,,,,,,,,,,,,,,,,,,,,,,,,,,,/muse/elements/blink
2020-11-15 15:41:08.784,0.27884284,0.26202193,0.6370566,1.4825401,0.06668301,0.018096045,0.20748307,0.95031196,0.61009353,0.35518816,0.34103587,1.029748,0.70307875,-0.19447066,-0.2941454,1.0343345,0.825908,-0.19734097,-0.30888933,0.8933773,901.3553,841.31866,834.87177,940.84247,16.923077,-0.318603515625,0.23419189453125,0.9169921875,-2.429962158203125,2.1832275390625,1.03179931640625,1,1.0,1.0,1.0,1.0,91.92
2020-11-15 15:41:09.723,,,,,,,,,,,,,,,,,,,,,,,,,,,,,,,,,,,,,,/muse/elements/blink
2020-11-15 15:41:09.802,0.27884284,0.24653381,0.5568176,1.4825401,0.06668301,0.14701167,0.19161767,0.95031196,0.61009353,0.44599417,0.15828513,1.029748,0.70307875,-0.29613292,-0.35861772,1.0343345,0.825908,-0.37217724,-0.33103806,0.8933773,749.85345,849.3773,845.34796,672.49084,43.516483,-0.31976318359375,0.23138427734375,0.91888427734375,-2.43743896484375,2.415008544921875,0.770111083984375,1,1.0,1.0,1.0,1.0,91.84
2020-11-15 15:41:10.828,0.27884284,0.5548779,0.5954976,0.96808016,0.06668301,0.45287117,0.14685869,0.8272681,0.61009353,0.5129677,0.055623837,1.036966,0.70307875,-0.20067145,-0.31905,0.6604319,0.825908,-0.42605007,-0.44303003,0.6082223,749.45056,847.3626,852.6007,719.2308,62.857143,-0.31793212890625,0.234130859375,0.9163818359375,-2.459869384765625,1.8841552734375,0.97198486328125,1,1.0,1.0,1.0,1.0,91.84
2020-11-15 15:41:11.849,0.09506065,0.4173306,0.24325962,1.0551296,0.2895572,0.26350766,-0.18548672,0.5502946,0.36703065,0.37561312,-0.25035986,1.0433886,0.7555968,-0.22946407,-0.3304917,0.67229867,0.6884884,-0.6158255,-0.5202699,0.5357016,817.1429,851.39197,840.9158,780.4762,1164.0659,-0.3292236328125,0.23284912109375,0.91448974609375,-2.452392578125,2.04864501953125,1.143951416015625,1,1.0,1.0,1.0,1.0,91.84
2020-11-15 15:41:12.867,0.52202946,0.50548846,0.573238,1.1428143,0.10733964,0.09205256,-0.19066733,0.7391268,0.48476464,0.22618456,-0.13005136,0.9548537,0.7034837,-0.33370203,-0.28324395,0.7752711,0.6866993,-0.5535771,-0.39404804,0.63154256,904.17584,839.304,836.4835,960.989,1063.7362,-0.3682861328125,0.22479248046875,0.9034423828125,-1.80938720703125,7.514190673828125,-0.01495361328125,1,1.0,1.0,1.0,1.0,91.84
2020-11-15 15:41:13.089,,,,,,,,,,,,,,,,,,,,,,,,,,,,,,,,,,,,,,/muse/elements/blink
2020-11-15 15:41:13.889,0.4533393,0.7773098,0.29104558,0.87502885,-0.39968425,0.025865922,-0.052658793,0.86027944,0.31937036,0.05309125,-0.036188494,0.65621823,0.5751164,-0.13020048,-0.12910621,0.7306062,0.7801187,-0.49720168,-0.3298456,0.80605507,886.8498,837.6923,829.6337,934.3956,77.36264,-0.352294921875,0.232421875,0.90869140625,-2.70660400390625,2.504730224609375,0.725250244140625,1,1.0,1.0,1.0,1.0,91.84
2020-11-15 15:41:14.458,,,,,,,,,,,,,,,,,,,,,,,,,,,,,,,,,,,,,,/muse/elements/blink
2020-11-15 15:41:14.914,0.4533393,0.85599566,0.54115355,0.87502885,-0.39968425,0.16729201,0.06544526,0.86027944,0.31937036,0.29093584,0.21788944,0.65621823,0.5751164,0.036277127,-0.09349941,0.7306062,0.7801187,-0.32305902,-0.31573945,0.80605507,964.21246,848.5714,826.0073,1036.7399,59.23077,-0.337890625,0.23480224609375,0.9246826171875,0.28411865234375,-0.13458251953125,-0.67291259765625,1,1.0,1.0,1.0,1.0,91.84
2020-11-15 15:41:15.303,,,,,,,,,,,,,,,,,,,,,,,,,,,,,,,,,,,,,,/muse/elements/blink
2020-11-15 15:41:15.936,0.4533393,0.9142475,1.1409055,0.87502885,-0.39968425,0.22160606,0.79787445,0.86027944,0.31937036,0.32085642,0.59515643,0.65621823,0.5751164,0.023819635,0.16498253,0.7306062,0.7801187,-0.26600617,-0.27147138,0.80605507,928.7546,838.9011,828.022,1024.652,116.849815,-0.3377685546875,0.22332763671875,0.91583251953125,-2.295379638671875,2.280426025390625,1.203765869140625,1,2.0,1.0,1.0,2.0,91.84
2020-11-15 15:41:16.599,,,,,,,,,,,,,,,,,,,,,,,,,,,,,,,,,,,,,,/muse/elements/blink
2020-11-15 15:41:16.954,0.4533393,0.7583139,0.7548551,0.87502885,-0.39968425,0.19009721,0.6932045,0.86027944,0.31937036,0.20189309,0.59515643,0.65621823,0.5751164,-0.03634508,-0.29076517,0.7306062,0.7801187,-0.8541764,-0.8691416,0.80605507,854.61536,844.94507,840.10986,844.1392,1260.3663,-0.33648681640625,0.219970703125,0.91632080078125,-2.13836669921875,1.51031494140625,1.682281494140625,1,2.0,1.0,1.0,2.0,91.84
2020-11-15 15:41:17.642,,,,,,,,,,,,,,,,,,,,,,,,,,,,,,,,,,,,,,/muse/elements/blink
2020-11-15 15:41:17.972,0.4533393,0.3861948,0.1290035,0.87502885,-0.39968425,0.10146111,-0.01799463,0.86027944,0.31937036,0.30210343,0.10758681,0.65621823,0.5751164,-0.092767216,-0.46945262,0.7306062,0.7801187,-0.64939135,-0.75016034,0.80605507,755.89746,846.55676,850.18317,763.1502,129.74359,-0.3321533203125,0.2191162109375,0.92059326171875,-2.250518798828125,4.6954345703125,0.6280517578125,1,2.0,1.0,1.0,2.0,91.84
2020-11-15 15:41:18.445,,,,,,,,,,,,,,,,,,,,,,,,,,,,,,,,,,,,,,/muse/elements/blink
2020-11-15 15:41:18.982,0.4533393,0.49243778,0.20414598,0.87502885,-0.39968425,-0.05580434,0.16245155,0.86027944,0.31937036,0.31402427,0.29869816,0.65621823,0.5751164,0.038419876,-0.20986402,0.7306062,0.7801187,-0.46914363,-0.5058441,0.80605507,745.0183,861.4652,849.7802,663.6264,45.934067,-0.34100341796875,0.21295166015625,0.9052734375,-2.549591064453125,-2.76641845703125,2.100982666015625,1,2.0,1.0,1.0,2.0,91.84
2020-11-15 15:41:19.048,,,,,,,,,,,,,,,,,,,,,,,,,,,,,,,,,,,,,,/muse/elements/blink
2020-11-15 15:41:19.483,,,,,,,,,,,,,,,,,,,,,,,,,,,,,,,,,,,,,,/muse/elements/blink
2020-11-15 15:41:19.987,0.4533393,0.53456724,0.40339333,0.87502885,-0.39968425,0.057684332,0.3456003,0.86027944,0.31937036,0.13124953,0.2809883,0.65621823,0.5751164,0.10011549,-0.11436759,0.7306062,0.7801187,-0.28634176,-0.447391,0.80605507,793.7729,845.7509,852.1978,836.8865,1143.9194,-0.27142333984375,0.21099853515625,0.9403076171875,-2.49725341796875,8.8824462890625,-1.03179931640625,1,2.0,1.0,1.0,2.0,91.73
2020-11-15 15:41:20.086,,,,,,,,,,,,,,,,,,,,,,,,,,,,,,,,,,,,,,/muse/elements/blink
2020-11-15 15:41:20.426,,,,,,,,,,,,,,,,,,,,,,,,,,,,,,,,,,,,,,/muse/elements/blink
2020-11-15 15:41:21.004,0.4533393,0.2746775,0.2943135,0.87502885,-0.39968425,0.0764004,0.21569073,0.86027944,0.31937036,0.19948581,0.17402054,0.65621823,0.5751164,0.005347626,-0.112676054,0.7306062,0.7801187,-0.4646693,-0.3983305,0.80605507,22.564102,843.73627,894.10254,22.564102,955.34796,-0.29962158203125,0.2808837890625,0.90167236328125,-1.024322509765625,5.90667724609375,1.42059326171875,1,2.0,1.0,1.0,2.0,91.73
2020-11-15 15:41:21.293,,,,,,,,,,,,,,,,,,,,,,,,,,,,,,,,,,,,,,/muse/elements/blink
2020-11-15 15:41:21.927,,,,,,,,,,,,,,,,,,,,,,,,,,,,,,,,,,,,,,/muse/elements/blink
2020-11-15 15:41:22.024,0.4533393,0.7554568,0.39042258,0.87502885,-0.39968425,0.066859774,0.46392828,0.86027944,0.31937036,0.5355551,0.24538162,0.65621823,0.5751164,-0.088805445,-0.13187662,0.7306062,0.7801187,-0.7818923,-0.325368,0.80605507,1650.0,849.7802,873.5531,295.348,839.707,-0.34307861328125,0.2939453125,0.8994140625,-1.09161376953125,0.949554443359375,2.04864501953125,1,4.0,1.0,1.0,4.0,91.73
2020-11-15 15:41:22.332,,,,,,,,,,,,,,,,,,,,,,,,,,,,,,,,,,,,,,/muse/elements/blink
2020-11-15 15:41:22.395,,,,,,,,,,,,,,,,,,,,,,,,,,,,,,,,,,,,,,/muse/elements/jaw_clench
2020-11-15 15:41:22.528,,,,,,,,,,,,,,,,,,,,,,,,,,,,,,,,,,,,,,/muse/elements/blink
2020-11-15 15:41:23.030,0.4533393,0.98493415,0.42526525,0.87502885,-0.39968425,0.33191735,0.49850035,0.86027944,0.31937036,0.5780474,0.24538162,0.65621823,0.5751164,-0.113177136,-0.16038622,0.7306062,0.7801187,-0.54061604,-0.3467179,0.80605507,1200.3297,848.1685,839.304,1650.0,956.55676,-0.3294677734375,0.223876953125,0.90838623046875,-3.237457275390625,3.820648193359375,0.650482177734375,1,2.0,1.0,1.0,2.0,91.73
2020-11-15 15:41:23.236,,,,,,,,,,,,,,,,,,,,,,,,,,,,,,,,,,,,,,/muse/elements/blink
2020-11-15 15:41:24.039,0.4533393,1.0639054,0.42526525,0.87502885,-0.39968425,0.9852346,0.49850035,0.86027944,0.31937036,0.99049777,0.24538162,0.65621823,0.5751164,0.03319517,-0.16038622,0.7306062,0.7801187,-0.5898851,-0.3467179,0.80605507,1650.0,860.2564,873.5531,1650.0,1103.2234,-0.37738037109375,0.19415283203125,0.8831787109375,-4.42626953125,3.730926513671875,-0.650482177734375,1,2.0,1.0,1.0,2.0,91.73
2020-11-15 15:41:24.706,,,,,,,,,,,,,,,,,,,,,,,,,,,,,,,,,,,,,,/muse/elements/blink
2020-11-15 15:41:24.807,,,,,,,,,,,,,,,,,,,,,,,,,,,,,,,,,,,,,,/muse/elements/jaw_clench
2020-11-15 15:41:25.041,0.4533393,1.2640254,0.42526525,0.87502885,-0.39968425,1.2387766,0.49850035,0.86027944,0.31937036,0.9887594,0.24538162,0.65621823,0.5751164,0.2343102,-0.16038622,0.7306062,0.7801187,-0.68343294,-0.3467179,0.80605507,22.564102,828.8278,854.61536,22.564102,570.14655,-0.44140625,0.2332763671875,0.8780517578125,22.32574462890625,-1.74957275390625,-2.572021484375,1,4.0,1.0,1.0,4.0,91.73
2020-11-15 15:41:25.442,,,,,,,,,,,,,,,,,,,,,,,,,,,,,,,,,,,,,,/muse/elements/blink
2020-11-15 15:41:25.678,,,,,,,,,,,,,,,,,,,,,,,,,,,,,,,,,,,,,,/muse/elements/jaw_clench
2020-11-15 15:41:26.048,0.4533393,1.192491,0.42526525,0.87502885,-0.39968425,1.3328373,0.49850035,0.86027944,0.31937036,0.9508209,0.24538162,0.65621823,0.5751164,0.23372614,-0.16038622,0.7306062,0.7801187,-0.6765548,-0.3467179,0.80605507,1650.0,792.96704,779.67035,1650.0,1646.7766,-0.4013671875,0.25091552734375,0.88262939453125,-4.119720458984375,0.485992431640625,2.400054931640625,1,2.0,1.0,1.0,4.0,91.73
2020-11-15 15:41:26.652,,,,,,,,,,,,,,,,,,,,,,,,,,,,,,,,,,,,,,/muse/elements/blink
2020-11-15 15:41:26.652,,,,,,,,,,,,,,,,,,,,,,,,,,,,,,,,,,,,,,/muse/elements/jaw_clench
2020-11-15 15:41:27.081,0.4533393,1.192491,0.42526525,0.87502885,-0.39968425,1.3328373,0.49850035,0.86027944,0.31937036,0.9508209,0.24538162,0.65621823,0.5751164,0.23372614,-0.16038622,0.7306062,0.7801187,-0.6765548,-0.3467179,0.80605507,1158.022,851.39197,827.619,1175.348,459.34067,-0.418701171875,0.23028564453125,0.88531494140625,-2.691650390625,-1.31591796875,0.657958984375,1,4.0,1.0,1.0,4.0,91.73
2020-11-15 15:41:27.689,,,,,,,,,,,,,,,,,,,,,,,,,,,,,,,,,,,,,,/muse/elements/blink
2020-11-15 15:41:28.097,0.4533393,0.8647768,0.741194,0.87502885,-0.39968425,0.16864826,0.31499457,0.86027944,0.31937036,0.19151215,-0.040872,0.65621823,0.5751164,0.41186538,0.4104476,0.7306062,0.7801187,0.45465225,0.21147315,0.80605507,693.44324,816.7399,880.80585,816.7399,0.0,-0.34197998046875,0.2425537109375,0.90631103515625,-1.921539306640625,-8.785247802734375,8.08990478515625,1,2.0,1.0,1.0,2.0,91.73
2020-11-15 15:41:28.228,,,,,,,,,,,,,,,,,,,,,,,,,,,,,,,,,,,,,,/muse/elements/blink
2020-11-15 15:41:28.424,,,,,,,,,,,,,,,,,,,,,,,,,,,,,,,,,,,,,,/muse/elements/blink
2020-11-15 15:41:28.891,,,,,,,,,,,,,,,,,,,,,,,,,,,,,,,,,,,,,,/muse/elements/blink
2020-11-15 15:41:28.891,,,,,,,,,,,,,,,,,,,,,,,,,,,,,,,,,,,,,,/muse/elements/jaw_clench
2020-11-15 15:41:29.121,0.4533393,0.6809044,0.741194,0.87502885,-0.39968425,-0.49937376,0.31499457,0.86027944,0.31937036,0.07975474,-0.040872,0.65621823,0.5751164,0.3926458,0.4104476,0.7306062,0.7801187,0.3326129,0.21147315,0.80605507,1104.8352,825.6044,830.84247,1077.4359,1271.2454,-0.33111572265625,0.2484130859375,0.9058837890625,-3.66363525390625,-1.62994384765625,-1.1962890625,1,2.0,1.0,1.0,2.0,91.73
2020-11-15 15:41:29.829,,,,,,,,,,,,,,,,,,,,,,,,,,,,,,,,,,,,,,/muse/elements/blink
2020-11-15 15:41:30.130,,,,,,,,,,,,,,,,,,,,,,,,,,,,,,,,,,,,,,/muse/elements/jaw_clench
2020-11-15 15:41:30.132,0.4533393,0.8273154,0.741194,0.87502885,-0.39968425,0.11676206,0.31499457,0.86027944,0.31937036,0.14091313,-0.040872,0.65621823,0.5751164,0.22410856,0.4104476,0.7306062,0.7801187,0.4235041,0.21147315,0.80605507,689.81683,863.0769,848.97437,704.3223,819.5604,-0.3731689453125,0.27679443359375,0.882568359375,-2.026214599609375,1.637420654296875,-0.964508056640625,1,2.0,1.0,1.0,2.0,91.64
2020-11-15 15:41:30.297,,,,,,,,,,,,,,,,,,,,,,,,,,,,,,,,,,,,,,/muse/elements/blink
2020-11-15 15:41:30.532,,,,,,,,,,,,,,,,,,,,,,,,,,,,,,,,,,,,,,/muse/elements/blink
2020-11-15 15:41:30.532,,,,,,,,,,,,,,,,,,,,,,,,,,,,,,,,,,,,,,/muse/elements/jaw_clench
2020-11-15 15:41:31.046,,,,,,,,,,,,,,,,,,,,,,,,,,,,,,,,,,,,,,/muse/elements/blink
2020-11-15 15:41:31.169,1.0338408,0.6263594,1.0069472,0.98082536,0.6713347,-0.17394604,0.574705,1.0459849,0.9614891,0.24927449,0.16234337,1.1015311,0.8536701,0.07720144,0.13854203,0.7396088,0.92728776,-0.21231286,0.43205434,0.9463629,670.07324,839.304,840.10986,664.0293,644.68866,-0.37542724609375,0.264404296875,0.89190673828125,-3.60382080078125,2.983245849609375,2.25799560546875,1,1.0,1.0,1.0,1.0,91.64
2020-11-15 15:41:31.538,,,,,,,,,,,,,,,,,,,,,,,,,,,,,,,,,,,,,,/muse/elements/blink
2020-11-15 15:41:31.939,,,,,,,,,,,,,,,,,,,,,,,,,,,,,,,,,,,,,,/muse/elements/blink
2020-11-15 15:41:32.140,,,,,,,,,,,,,,,,,,,,,,,,,,,,,,,,,,,,,,/muse/elements/blink
2020-11-15 15:41:32.190,1.2841307,0.5081597,0.7255606,1.5891316,0.87032187,0.057250902,0.24783513,1.2641773,1.2090777,0.52861243,0.24546161,1.1110269,1.1014345,0.07241372,0.028339382,0.97182435,1.0319284,-0.22014269,0.10283495,0.9005076,1023.0403,842.1245,823.9927,1046.0073,123.69963,-0.36419677734375,0.282958984375,0.87799072265625,-2.88604736328125,1.973876953125,0.73272705078125,1,1.0,1.0,1.0,1.0,91.64
2020-11-15 15:41:32.373,,,,,,,,,,,,,,,,,,,,,,,,,,,,,,,,,,,,,,/muse/elements/jaw_clench
2020-11-15 15:41:32.474,,,,,,,,,,,,,,,,,,,,,,,,,,,,,,,,,,,,,,/muse/elements/blink
2020-11-15 15:41:32.574,,,,,,,,,,,,,,,,,,,,,,,,,,,,,,,,,,,,,,/muse/elements/jaw_clench
2020-11-15 15:41:32.975,,,,,,,,,,,,,,,,,,,,,,,,,,,,,,,,,,,,,,/muse/elements/blink
2020-11-15 15:41:33.208,1.0677443,0.7289273,0.6379074,1.3392551,0.6840411,0.2134467,0.35144237,0.87715024,1.2024496,0.47954935,0.34537306,1.1354041,1.1125305,-0.117721364,0.25730932,0.9933723,1.0143006,-0.07973567,-0.2050713,0.6851425,683.7729,858.24176,843.3333,730.9158,797.3993,-0.37567138671875,0.2821044921875,0.884521484375,-2.011260986328125,3.581390380859375,0.657958984375,1,1.0,1.0,1.0,1.0,91.64
2020-11-15 15:41:33.278,,,,,,,,,,,,,,,,,,,,,,,,,,,,,,,,,,,,,,/muse/elements/blink
2020-11-15 15:41:33.581,,,,,,,,,,,,,,,,,,,,,,,,,,,,,,,,,,,,,,/muse/elements/blink
2020-11-15 15:41:33.779,,,,,,,,,,,,,,,,,,,,,,,,,,,,,,,,,,,,,,/muse/elements/blink
2020-11-15 15:41:33.983,,,,,,,,,,,,,,,,,,,,,,,,,,,,,,,,,,,,,,/muse/elements/blink
2020-11-15 15:41:34.216,0.8259193,0.613569,0.9623723,1.0683398,0.465939,0.015694682,0.32558045,0.5320456,0.8334088,0.066067986,0.35629225,0.8953618,1.1408114,-0.20243824,0.21440752,0.96775615,0.9341094,-0.11662445,-0.16380773,0.6605519,947.6923,827.619,838.0952,971.4652,1051.2454,-0.366455078125,0.27471923828125,0.8887939453125,-1.33087158203125,3.30474853515625,1.981353759765625,1,1.0,1.0,1.0,1.0,91.64
2020-11-15 15:41:34.383,,,,,,,,,,,,,,,,,,,,,,,,,,,,,,,,,,,,,,/muse/elements/blink
2020-11-15 15:41:35.020,,,,,,,,,,,,,,,,,,,,,,,,,,,,,,,,,,,,,,/muse/elements/jaw_clench
2020-11-15 15:41:35.239,0.7902961,0.6540548,0.75839674,1.2930592,1.0048723,-0.035603806,0.12823977,1.453152,1.3734688,0.21083774,0.15948573,1.2424922,1.1060758,-0.0029551024,0.017044714,1.1081657,1.1719435,-0.2414944,-0.069484204,1.1980957,801.8315,851.39197,845.34796,790.14655,205.09157,-0.39129638671875,0.2822265625,0.88189697265625,-2.34771728515625,1.68975830078125,0.70281982421875,1,1.0,1.0,1.0,1.0,91.64
2020-11-15 15:41:35.690,,,,,,,,,,,,,,,,,,,,,,,,,,,,,,,,,,,,,,/muse/elements/jaw_clench
2020-11-15 15:41:35.825,,,,,,,,,,,,,,,,,,,,,,,,,,,,,,,,,,,,,,/muse/elements/blink
2020-11-15 15:41:35.924,,,,,,,,,,,,,,,,,,,,,,,,,,,,,,,,,,,,,,/muse/elements/jaw_clench
2020-11-15 15:41:36.263,0.9540642,0.41067398,0.4577051,1.3559656,1.1292,-0.021880655,0.078223325,1.280621,1.3734688,0.35237122,0.32196668,1.085959,1.1098318,0.119945146,0.02440675,1.1462665,1.223788,0.15999874,-0.17730436,1.2778779,763.95605,840.9158,840.10986,788.1319,147.0696,-0.3746337890625,0.271484375,0.8846435546875,-2.3626708984375,2.519683837890625,1.114044189453125,1,1.0,1.0,1.0,1.0,91.64
2020-11-15 15:41:36.559,,,,,,,,,,,,,,,,,,,,,,,,,,,,,,,,,,,,,,/muse/elements/blink
2020-11-15 15:41:36.864,,,,,,,,,,,,,,,,,,,,,,,,,,,,,,,,,,,,,,/muse/elements/blink
2020-11-15 15:41:37.294,0.9540642,0.27008563,0.17732112,1.3630096,1.1292,0.045960244,0.11950336,1.3286762,1.3734688,0.3143531,0.36408693,1.1719396,1.1098318,0.07120875,0.09381741,1.2025543,1.223788,0.14899659,-0.26695114,1.24138,979.5238,845.34796,829.6337,990.40295,1157.2161,-0.33953857421875,0.28021240234375,0.8983154296875,-2.61688232421875,3.2598876953125,0.9271240234375,1,1.0,1.0,1.0,1.0,91.64
2020-11-15 15:41:38.236,,,,,,,,,,,,,,,,,,,,,,,,,,,,,,,,,,,,,,/muse/elements/blink
2020-11-15 15:41:38.299,0.4770478,0.46844485,0.27535343,1.1676395,0.5949926,0.11958595,0.11338064,1.166869,0.8194011,0.21098895,0.19558378,1.1532576,0.9468777,-0.118601225,0.021597479,1.1430444,0.929115,-0.17858027,-0.23999721,1.1093866,953.73627,845.34796,835.6777,978.71796,121.28205,-0.345703125,0.2769775390625,0.8963623046875,-2.564544677734375,2.67669677734375,1.06170654296875,1,1.0,1.0,1.0,1.0,91.64
2020-11-15 15:41:38.473,,,,,,,,,,,,,,,,,,,,,,,,,,,,,,,,,,,,,,/muse/elements/blink
2020-11-15 15:41:38.638,,,,,,,,,,,,,,,,,,,,,,,,,,,,,,,,,,,,,,/muse/elements/blink
2020-11-15 15:41:39.305,0.59039176,0.39204696,0.25543177,1.0939797,0.37406212,0.17015898,0.13259274,0.66050225,0.8737145,0.38957602,-0.093003154,0.85378003,0.85682774,-0.113110766,-0.114955395,0.8389201,0.83677644,-0.38095614,-0.43250114,0.816664,933.9927,848.1685,831.6484,940.4396,68.9011,-0.37939453125,0.2646484375,0.8929443359375,-2.609405517578125,4.209442138671875,0.291595458984375,1,1.0,1.0,1.0,1.0,91.52
2020-11-15 15:41:39.343,,,,,,,,,,,,,,,,,,,,,,,,,,,,,,,,,,,,,,/muse/elements/blink
2020-11-15 15:41:39.579,,,,,,,,,,,,,,,,,,,,,,,,,,,,,,,,,,,,,,/muse/elements/blink
2020-11-15 15:41:39.876,,,,,,,,,,,,,,,,,,,,,,,,,,,,,,,,,,,,,,/muse/elements/blink
2020-11-15 15:41:40.310,0.7458836,0.5552298,0.9930836,1.1072345,0.11063574,0.13025819,0.15861882,0.69045967,0.5503721,0.40931526,0.3573031,0.86259574,0.7591115,0.094343215,-0.05620952,0.8093009,0.8723244,-0.26211452,-0.2684755,0.68446517,897.326,845.34796,811.50183,930.3663,42.71062,-0.37982177734375,0.26715087890625,0.88433837890625,-2.684173583984375,3.312225341796875,0.40374755859375,1,1.0,1.0,1.0,1.0,91.52
2020-11-15 15:41:40.682,,,,,,,,,,,,,,,,,,,,,,,,,,,,,,,,,,,,,,/muse/elements/blink
2020-11-15 15:41:40.949,,,,,,,,,,,,,,,,,,,,,,,,,,,,,,,,,,,,,,/muse/elements/blink
2020-11-15 15:41:41.314,0.7091272,0.7587198,1.3455652,1.4632156,0.026088117,0.31106237,0.30750394,1.3982164,0.5284126,0.32250294,0.53062594,1.2696903,0.72684956,0.0684102,0.07294159,0.9973761,0.8674513,-0.17197245,-0.13331653,0.73514473,694.2491,871.9414,856.2271,672.0879,0.0,-0.39251708984375,0.27154541015625,0.88507080078125,-2.16827392578125,1.4056396484375,0.35888671875,1,1.0,1.0,1.0,1.0,91.52
2020-11-15 15:41:41.685,,,,,,,,,,,,,,,,,,,,,,,,,,,,,,,,,,,,,,/muse/elements/blink
2020-11-15 15:41:42.322,0.7091272,0.61264426,0.5910376,1.4632156,0.026088117,0.2179465,0.19733302,1.3982164,0.5284126,0.39637023,-0.021450821,1.2696903,0.72684956,0.02674837,-0.15367317,0.9973761,0.8674513,-0.13076527,-0.30140147,0.73514473,1000.07324,845.7509,839.707,1025.4579,9.267399,-0.37213134765625,0.26812744140625,0.888671875,-2.115936279296875,2.43743896484375,1.114044189453125,1,1.0,1.0,1.0,1.0,91.52
2020-11-15 15:41:42.623,,,,,,,,,,,,,,,,,,,,,,,,,,,,,,,,,,,,,,/muse/elements/blink
2020-11-15 15:41:43.258,,,,,,,,,,,,,,,,,,,,,,,,,,,,,,,,,,,,,,/muse/elements/blink
2020-11-15 15:41:43.340,0.6462877,0.36710945,0.5521643,1.4632156,0.26662102,-0.0054733614,0.13416597,1.3982164,0.22398795,0.21571113,-0.08508618,1.2696903,1.1895022,-0.04669477,-0.32201582,0.9973761,0.7685021,-0.424111,-0.38779944,0.73514473,962.1978,847.3626,836.4835,995.64105,75.750916,-0.375244140625,0.26885986328125,0.8953857421875,-2.415008544921875,0.186920166015625,1.5850830078125,1,1.0,1.0,1.0,1.0,91.52
2020-11-15 15:41:43.528,,,,,,,,,,,,,,,,,,,,,,,,,,,,,,,,,,,,,,/muse/elements/blink
2020-11-15 15:41:44.070,,,,,,,,,,,,,,,,,,,,,,,,,,,,,,,,,,,,,,/muse/elements/blink
2020-11-15 15:41:44.331,,,,,,,,,,,,,,,,,,,,,,,,,,,,,,,,,,,,,,/muse/elements/blink
2020-11-15 15:41:44.360,0.5760329,0.35978547,0.39018974,1.4632156,0.20987168,-0.044771254,0.30140093,1.3982164,0.0411938,0.27074057,0.26797462,1.2696903,1.1864083,-0.02723928,-0.014676209,0.9973761,0.6892368,-0.26110166,-0.13661404,0.73514473,912.6374,842.1245,836.4835,953.73627,973.47986,-0.36517333984375,0.2672119140625,0.89398193359375,-2.34771728515625,2.504730224609375,1.143951416015625,1,1.0,1.0,1.0,1.0,91.52
2020-11-15 15:41:45.372,0.5760329,0.47023448,0.48150256,1.0554734,0.20987168,0.12793207,-0.020031285,0.8884411,0.0411938,0.2910315,0.2527436,0.9274945,1.1864083,-0.044816043,-0.048595168,0.94973594,0.6892368,-0.45468757,-0.2941567,0.80699354,993.6264,843.73627,835.2747,1034.3224,148.27838,-0.37310791015625,0.26556396484375,0.8846435546875,-1.45050048828125,2.61688232421875,1.562652587890625,1,1.0,1.0,1.0,1.0,91.52
2020-11-15 15:41:45.471,,,,,,,,,,,,,,,,,,,,,,,,,,,,,,,,,,,,,,/muse/elements/blink
2020-11-15 15:41:46.388,0.5760329,0.6421633,0.20509094,1.0802785,0.20987168,0.2395079,-0.04768672,1.0438249,0.0411938,0.18815519,0.09578965,0.76966715,1.1864083,-0.021608874,-0.29382944,1.042316,0.6892368,-0.32191247,-0.3936098,0.8068719,661.6117,852.6007,869.12085,663.6264,130.95238,-0.3709716796875,0.27490234375,0.893310546875,-1.801910400390625,2.594451904296875,0.620574951171875,1,1.0,1.0,1.0,1.0,91.52
2020-11-15 15:41:46.675,,,,,,,,,,,,,,,,,,,,,,,,,,,,,,,,,,,,,,/muse/elements/blink
2020-11-15 15:41:47.379,,,,,,,,,,,,,,,,,,,,,,,,,,,,,,,,,,,,,,/muse/elements/blink
2020-11-15 15:41:47.406,1.402661,0.6681543,0.46276566,1.1995199,1.0922506,0.052833535,0.38670504,1.1209817,1.0278349,0.049301818,0.0831981,0.78309315,1.1387517,-0.09915801,-0.15787692,1.1156206,1.2313565,-0.34356174,-0.3714387,0.83717567,646.7033,854.21246,856.63007,686.5934,169.6337,-0.37908935546875,0.2716064453125,0.8856201171875,-2.310333251953125,1.8243408203125,0.9869384765625,1,1.0,1.0,1.0,1.0,91.52
2020-11-15 15:41:48.418,1.4402614,0.10515751,0.36356094,1.2502604,1.0997884,0.07411803,0.26639056,1.1009835,1.0278349,0.2148008,0.08802284,0.63959545,1.14523,-0.30006868,-0.2595645,1.1129973,1.2259823,-0.5574486,-0.4929549,0.82903576,786.52014,843.3333,844.1392,778.86444,1022.23444,-0.380615234375,0.27105712890625,0.8760986328125,-3.282318115234375,1.89910888671875,1.592559814453125,1,1.0,1.0,1.0,1.0,91.52
2020-11-15 15:41:49.450,1.4402614,0.2622524,0.028652033,1.4657555,1.0997884,0.2287273,-0.11083344,0.6442064,1.0278349,0.28456923,0.020373633,0.90573674,1.14523,-0.3835171,-0.1859407,0.93312955,1.2259823,-0.4192654,-0.497641,0.7717979,791.3553,846.9597,844.1392,792.5641,246.99634,-0.38787841796875,0.26739501953125,0.87908935546875,-3.072967529296875,1.65985107421875,1.024322509765625,1,1.0,1.0,1.0,1.0,91.45
2020-11-15 15:41:50.458,1.2754754,0.2622191,0.3423095,1.2210542,1.0353147,0.2673928,0.014000241,0.96023035,1.1907285,0.41104245,0.058773153,1.0087513,1.0991749,-0.195069,0.09826504,1.1253116,0.88472927,-0.48863816,0.1113208,0.82602507,891.685,846.55676,858.24176,890.4762,1497.2894,-0.4342041015625,0.232421875,0.87554931640625,-4.47113037109375,-4.044952392578125,-1.24114990234375,1,1.0,1.0,1.0,1.0,91.45
2020-11-15 15:41:50.727,,,,,,,,,,,,,,,,,,,,,,,,,,,,,,,,,,,,,,/muse/elements/blink
2020-11-15 15:41:51.162,,,,,,,,,,,,,,,,,,,,,,,,,,,,,,,,,,,,,,/muse/elements/blink
2020-11-15 15:41:51.477,1.6214504,0.7355369,0.88482267,1.2767386,1.3528235,0.14778109,0.21609457,1.2966838,1.2326949,0.6246242,0.11636477,1.0019891,1.3135651,0.3297088,0.35490036,1.2686466,0.9026268,0.04777139,0.43907258,0.9141117,982.74725,853.4066,836.08057,1006.52014,1618.5714,-0.40911865234375,0.22894287109375,0.873291015625,-3.611297607421875,1.83929443359375,0.949554443359375,1,1.0,1.0,1.0,1.0,91.45
2020-11-15 15:41:52.502,1.6214504,0.7081334,1.1674528,1.355948,1.3528235,0.33550292,0.41187555,1.372561,1.2326949,0.60993034,0.045245454,0.95287704,1.3135651,0.3259357,0.13173075,1.2791175,0.9026268,0.08893123,0.105463475,0.93586254,758.315,869.92676,832.0513,752.27106,773.6264,-0.403564453125,0.2354736328125,0.881591796875,-1.951446533203125,1.128997802734375,1.592559814453125,1,1.0,1.0,1.0,1.0,91.45
2020-11-15 15:41:52.768,,,,,,,,,,,,,,,,,,,,,,,,,,,,,,,,,,,,,,/muse/elements/blink
2020-11-15 15:41:53.272,,,,,,,,,,,,,,,,,,,,,,,,,,,,,,,,,,,,,,/muse/elements/blink
2020-11-15 15:41:53.506,1.6214504,0.8414298,1.1047189,1.355948,1.3528235,0.23355927,0.48470038,1.372561,1.2326949,0.55509305,0.041533824,0.95287704,1.3135651,0.11468744,-0.047498126,1.2791175,0.9026268,-0.0038617277,-0.3732609,0.93586254,940.84247,844.5421,831.2454,915.05493,1630.2565,-0.4151611328125,0.23663330078125,0.87396240234375,-2.27294921875,3.9776611328125,0.949554443359375,1,2.0,1.0,1.0,2.0,91.45
2020-11-15 15:41:53.842,,,,,,,,,,,,,,,,,,,,,,,,,,,,,,,,,,,,,,/muse/elements/blink
2020-11-15 15:41:54.211,,,,,,,,,,,,,,,,,,,,,,,,,,,,,,,,,,,,,,/muse/elements/blink
2020-11-15 15:41:54.507,1.6214504,0.8954695,0.6805793,1.355948,1.3528235,0.51725996,0.33424944,1.372561,1.2326949,0.53830004,0.43273202,0.95287704,1.3135651,0.26730445,0.06528905,1.2791175,0.9026268,0.008728131,-0.15875368,0.93586254,776.04395,853.8095,841.31866,768.3883,41.0989,-0.429443359375,0.24700927734375,0.8681640625,-1.637420654296875,2.04864501953125,1.203765869140625,1,2.0,1.0,1.0,2.0,91.45
2020-11-15 15:41:55.517,1.6214504,0.44505355,0.7889115,1.063511,1.3528235,0.23312631,0.27905092,0.71411484,1.2326949,0.39722118,0.43320954,1.0581654,1.3135651,0.23516622,0.13240905,1.0065352,0.9026268,0.1420054,-0.008012475,0.6922777,708.7546,844.5421,848.97437,700.293,151.0989,-0.42401123046875,0.25634765625,0.8624267578125,-1.876678466796875,5.72723388671875,0.590667724609375,1,2.0,1.0,1.0,2.0,91.45
2020-11-15 15:41:56.541,1.6214504,0.7323501,0.6437795,1.5063516,1.3528235,-0.06942679,0.111734524,0.9132352,1.2326949,0.17996274,0.21771502,1.0816171,1.3135651,0.21195596,0.05656688,0.89866596,0.9026268,0.15589963,-0.0758736,0.7517967,681.75824,841.31866,857.03296,668.86444,66.48351,-0.42877197265625,0.26239013671875,0.86517333984375,-2.609405517578125,1.18133544921875,0.58319091796875,1,1.0,1.0,1.0,1.0,91.45
2020-11-15 15:41:56.744,,,,,,,,,,,,,,,,,,,,,,,,,,,,,,,,,,,,,,/muse/elements/blink
2020-11-15 15:41:57.571,0.8609986,0.8168118,0.6280033,1.4003013,0.5265896,0.18977179,0.2837851,0.99162936,0.8012768,0.25460735,0.19360033,0.94875616,1.1506312,0.24709034,0.25126445,0.9931098,0.7316404,-0.20372339,-0.14854518,0.867133,807.47253,847.3626,857.03296,823.9927,278.02197,-0.40093994140625,0.260009765625,0.87939453125,-2.489776611328125,-1.98883056640625,1.443023681640625,1,1.0,1.0,1.0,1.0,91.45
2020-11-15 15:41:57.877,,,,,,,,,,,,,,,,,,,,,,,,,,,,,,,,,,,,,,/muse/elements/blink
2020-11-15 15:41:58.146,,,,,,,,,,,,,,,,,,,,,,,,,,,,,,,,,,,,,,/muse/elements/jaw_clench
2020-11-15 15:41:58.246,,,,,,,,,,,,,,,,,,,,,,,,,,,,,,,,,,,,,,/muse/elements/blink
2020-11-15 15:41:58.581,0.8909501,0.55358243,1.0208346,1.3149319,0.16655125,0.26044795,0.13905476,0.8671945,0.5775008,0.53411543,0.6842215,0.8697899,1.2429569,0.322692,0.560449,1.2011256,0.8417853,0.29242426,0.19432256,0.81060505,948.9011,840.9158,841.31866,916.6667,107.17949,-0.4178466796875,0.2506103515625,0.87725830078125,-2.093505859375,-3.745880126953125,3.6187744140625,1,1.0,1.0,1.0,1.0,91.45
2020-11-15 15:41:59.081,,,,,,,,,,,,,,,,,,,,,,,,,,,,,,,,,,,,,,/muse/elements/blink
2020-11-15 15:41:59.287,,,,,,,,,,,,,,,,,,,,,,,,,,,,,,,,,,,,,,/muse/elements/blink
2020-11-15 15:41:59.580,,,,,,,,,,,,,,,,,,,,,,,,,,,,,,,,,,,,,,/muse/elements/blink
2020-11-15 15:41:59.613,0.88178223,0.4767743,0.94222486,1.3573365,-0.030576749,0.27841413,0.43612254,0.8633889,0.18288463,0.541102,0.6842215,0.8382892,1.2672817,0.33720008,0.8185486,1.2742069,0.9147432,0.40946758,0.42003474,0.74583805,870.7326,840.5128,884.0293,875.9707,1531.1355,-0.3797607421875,0.261962890625,0.86883544921875,-2.190704345703125,-5.600128173828125,3.252410888671875,1,1.0,1.0,1.0,1.0,91.34
2020-11-15 15:41:59.817,,,,,,,,,,,,,,,,,,,,,,,,,,,,,,,,,,,,,,/muse/elements/blink
2020-11-15 15:42:00.187,,,,,,,,,,,,,,,,,,,,,,,,,,,,,,,,,,,,,,/muse/elements/blink
2020-11-15 15:42:00.488,,,,,,,,,,,,,,,,,,,,,,,,,,,,,,,,,,,,,,/muse/elements/blink
2020-11-15 15:42:00.619,0.88178223,0.59286773,0.98915815,1.3452971,-0.030576749,0.19479762,0.46670562,0.9814037,0.18288463,0.42369092,0.67065394,1.2111472,1.2672817,0.20242636,0.84901345,1.2481468,0.9147432,0.05157097,0.49403912,1.1942571,845.34796,840.5128,837.6923,877.5824,598.7546,-0.44244384765625,0.2716064453125,0.86236572265625,-0.366363525390625,-11.05072021484375,3.162689208984375,1,1.0,1.0,1.0,1.0,91.34
2020-11-15 15:42:01.624,0.88178223,0.9065377,0.8688604,1.4663265,-0.030576749,0.11670347,0.21550079,1.0019362,0.18288463,0.3321036,-0.05073235,1.2097225,1.2672817,0.1144306,-0.050523132,1.3075086,0.9147432,-0.18538924,-0.13943543,1.2337135,975.4945,831.2454,834.4689,1003.69965,1624.2124,-0.45989990234375,0.26373291015625,0.87847900390625,-7.514190673828125,6.183319091796875,-4.1571044921875,1,1.0,1.0,1.0,1.0,91.34
2020-11-15 15:42:02.645,0.88178223,0.3918452,1.0637906,1.2804013,-0.030576749,0.0162803,0.14068457,0.93501186,0.18288463,0.3526619,0.1204421,0.96558815,1.2672817,0.0512214,0.037240323,0.87349665,0.9147432,-0.29339814,-0.09815816,1.078142,732.9304,842.52747,861.06226,690.2198,25.787546,-0.4459228515625,0.21502685546875,0.87109375,0.76263427734375,-3.15521240234375,3.94775390625,1,1.0,1.0,1.0,1.0,91.34
2020-11-15 15:42:02.732,,,,,,,,,,,,,,,,,,,,,,,,,,,,,,,,,,,,,,/muse/elements/blink
2020-11-15 15:42:03.034,,,,,,,,,,,,,,,,,,,,,,,,,,,,,,,,,,,,,,/muse/elements/blink
2020-11-15 15:42:03.204,,,,,,,,,,,,,,,,,,,,,,,,,,,,,,,,,,,,,,/muse/elements/blink
2020-11-15 15:42:03.666,1.3778142,0.21745321,0.59095854,1.2740002,1.2219645,0.067824595,-0.18609516,1.0698463,1.451446,0.26936316,0.26905468,1.3839344,1.2402968,0.041220367,0.20920275,1.5521615,0.89010096,-0.037083857,0.07762222,1.3395983,754.2857,848.97437,813.5165,757.9121,11.684981,-0.3887939453125,0.24066162109375,0.88824462890625,-3.072967529296875,3.21502685546875,2.3626708984375,1,1.0,1.0,1.0,1.0,91.34
2020-11-15 15:42:04.676,1.2363303,0.23794758,-0.07459597,1.2063363,1.092117,0.20787552,-0.2360079,1.0925071,1.4202058,0.28095388,0.18573177,1.3839344,1.2412891,0.17879753,0.2025344,1.622756,0.855518,0.19210616,0.12365322,1.3850243,745.42126,844.94507,878.7912,734.5421,123.2967,-0.42388916015625,0.2354736328125,0.875244140625,-1.413116455078125,2.594451904296875,-0.964508056640625,1,1.0,1.0,1.0,1.0,91.34
2020-11-15 15:42:05.043,,,,,,,,,,,,,,,,,,,,,,,,,,,,,,,,,,,,,,/muse/elements/blink
2020-11-15 15:42:05.548,,,,,,,,,,,,,,,,,,,,,,,,,,,,,,,,,,,,,,/muse/elements/blink
2020-11-15 15:42:05.680,1.2363303,0.4998117,1.2236197,1.2063363,1.092117,0.26025996,0.70286787,1.0925071,1.4202058,0.09006624,0.26688078,1.3839344,1.2412891,0.25876024,0.21919464,1.622756,0.855518,0.17130485,-0.19271758,1.3850243,936.4103,821.5751,770.0,1041.1721,1344.1758,-0.43194580078125,0.2022705078125,0.8580322265625,-15.589141845703125,4.867401123046875,-17.577972412109375,1,1.0,1.0,1.0,1.0,91.34
2020-11-15 15:42:05.747,,,,,,,,,,,,,,,,,,,,,,,,,,,,,,,,,,,,,,/muse/elements/blink
2020-11-15 15:42:05.747,,,,,,,,,,,,,,,,,,,,,,,,,,,,,,,,,,,,,,/muse/elements/jaw_clench
2020-11-15 15:42:06.482,,,,,,,,,,,,,,,,,,,,,,,,,,,,,,,,,,,,,,/muse/elements/blink
2020-11-15 15:42:06.689,1.2363303,0.4998117,1.3103622,1.2063363,1.092117,0.26025996,0.8240066,1.0925071,1.4202058,0.09006624,0.26688078,1.3839344,1.2412891,0.25876024,0.22677162,1.622756,0.855518,0.17130485,-0.24175724,1.3850243,814.7253,840.5128,850.58606,836.08057,1314.359,-0.3526611328125,0.1959228515625,0.910888671875,-3.551483154296875,3.66363525390625,2.056121826171875,1,2.0,1.0,1.0,2.0,91.34
2020-11-15 15:42:07.088,,,,,,,,,,,,,,,,,,,,,,,,,,,,,,,,,,,,,,/muse/elements/blink
2020-11-15 15:42:07.704,1.2363303,0.9412994,1.0010064,1.2063363,1.092117,0.3118189,0.41537386,1.0925071,1.4202058,0.30793822,0.016034149,1.3839344,1.2412891,-0.17832759,-0.290258,1.622756,0.855518,-0.40595022,-0.39193335,1.3850243,783.2967,849.7802,856.63007,778.0586,1035.9341,-0.37237548828125,0.20001220703125,0.90142822265625,-2.415008544921875,2.6318359375,0.456085205078125,1,2.0,1.0,1.0,2.0,91.34
2020-11-15 15:42:08.714,1.2363303,0.70260745,0.58054656,1.2063363,1.092117,0.31461456,0.065519296,1.0925071,1.4202058,0.3647306,0.095651105,1.3839344,1.2412891,-0.09482099,-0.1906911,1.622756,0.855518,-0.45245397,-0.20138524,1.3850243,903.36993,843.73627,830.84247,967.03296,113.22344,-0.40802001953125,0.2047119140625,0.8798828125,-2.639312744140625,9.73480224609375,0.478515625,1,2.0,1.0,1.0,2.0,91.34
2020-11-15 15:42:08.913,,,,,,,,,,,,,,,,,,,,,,,,,,,,,,,,,,,,,,/muse/elements/blink
2020-11-15 15:42:09.741,1.3141178,0.6169069,0.31501517,1.4504149,0.8524117,0.098638326,-0.4220022,0.7476258,1.1627036,0.466234,-0.11842768,0.7237682,1.0661763,-0.0833401,-0.3579787,0.76712143,0.8776926,-0.43546736,-0.040484965,0.7685936,756.30035,856.63007,848.97437,731.7216,838.49817,-0.4150390625,0.37677001953125,0.81201171875,-3.84307861328125,5.96649169921875,-2.145843505859375,1,1.0,1.0,1.0,1.0,91.28
2020-11-15 15:42:10.317,,,,,,,,,,,,,,,,,,,,,,,,,,,,,,,,,,,,,,/muse/elements/blink
2020-11-15 15:42:10.755,1.1305356,0.8282362,1.0389427,1.4005191,0.92404497,0.3581755,0.9151925,0.6398805,1.1348538,0.4726166,0.6815015,0.700828,1.0973885,-0.004274227,0.1498326,0.775544,0.84741235,-0.3717312,0.10659302,0.74726456,899.34064,843.73627,830.84247,910.6227,830.84247,-0.474365234375,0.34832763671875,0.80279541015625,-2.026214599609375,0.28411865234375,1.413116455078125,1,1.0,1.0,1.0,1.0,91.28
2020-11-15 15:42:11.155,,,,,,,,,,,,,,,,,,,,,,,,,,,,,,,,,,,,,,/muse/elements/blink
2020-11-15 15:42:11.659,,,,,,,,,,,,,,,,,,,,,,,,,,,,,,,,,,,,,,/muse/elements/blink
2020-11-15 15:42:11.790,1.0524116,0.9038638,0.72846484,1.4005191,0.90453154,0.29480317,0.6051453,0.6398805,1.0480098,0.4546341,0.6396383,0.700828,1.0931276,0.13236526,0.061826468,0.775544,0.8178388,-0.18119422,0.23145598,0.74726456,931.978,848.1685,829.2308,869.5238,722.4542,-0.44195556640625,0.40252685546875,0.81640625,-3.06549072265625,1.12152099609375,3.043060302734375,1,1.0,1.0,1.0,1.0,91.28
2020-11-15 15:42:11.992,,,,,,,,,,,,,,,,,,,,,,,,,,,,,,,,,,,,,,/muse/elements/blink
2020-11-15 15:42:12.795,1.0524116,0.33367583,0.45136544,1.4005191,0.90453154,-0.016581146,0.24219052,0.6398805,1.0480098,0.36852807,0.16999714,0.700828,1.0931276,0.15698941,-0.14116335,0.775544,0.8178388,-0.18393764,0.07853447,0.74726456,707.5458,845.7509,848.5714,667.25275,354.1758,-0.463134765625,0.38739013671875,0.80413818359375,-1.891632080078125,-1.742095947265625,2.70660400390625,1,2.0,1.0,1.0,2.0,91.28
2020-11-15 15:42:13.816,0.9535309,0.7760544,0.83591014,1.238454,0.49972993,0.10673985,-0.05794496,0.554307,0.9162458,0.36348972,0.14377998,0.7913569,1.0332303,0.14901419,-0.05763748,0.52628374,0.96748954,-0.0030023216,-0.24467775,0.7194329,925.12823,854.61536,839.707,924.3223,861.4652,-0.4453125,0.38848876953125,0.817138671875,-2.863616943359375,0.8074951171875,1.143951416015625,1,1.0,1.0,1.0,1.0,91.28
2020-11-15 15:42:14.478,,,,,,,,,,,,,,,,,,,,,,,,,,,,,,,,,,,,,,/muse/elements/blink
2020-11-15 15:42:14.834,0.9919787,0.88437957,0.788103,1.4610634,0.5947617,0.19940688,-0.06497617,0.7545618,0.74338526,0.342592,0.11761118,0.95718396,1.0773752,0.08119221,-7.093818E-4,0.84970695,0.8417634,-0.04462806,-0.17905761,0.7573474,742.1978,860.2564,850.989,684.17584,213.95604,-0.41229248046875,0.3798828125,0.8175048828125,-4.433746337890625,2.94586181640625,3.4991455078125,1,1.0,1.0,1.0,1.0,91.28
2020-11-15 15:42:15.039,,,,,,,,,,,,,,,,,,,,,,,,,,,,,,,,,,,,,,/muse/elements/blink
2020-11-15 15:42:15.641,,,,,,,,,,,,,,,,,,,,,,,,,,,,,,,,,,,,,,/muse/elements/blink
2020-11-15 15:42:15.841,1.1232451,0.5953519,0.67198974,1.5291296,0.7063959,0.17469446,0.10625293,0.82504606,0.6704848,0.30525494,0.49051484,0.93207455,1.1671646,0.09793968,-0.03979394,0.93406504,0.7875958,-0.11684133,-0.1754414,0.7672693,916.6667,841.31866,834.4689,980.32965,179.70695,-0.41845703125,0.38201904296875,0.82904052734375,-2.489776611328125,1.742095947265625,1.27105712890625,1,1.0,1.0,1.0,1.0,91.28
2020-11-15 15:42:16.211,,,,,,,,,,,,,,,,,,,,,,,,,,,,,,,,,,,,,,/muse/elements/blink
2020-11-15 15:42:16.849,1.1232451,0.2724462,0.6932588,1.1226791,0.7063959,0.09463712,0.38259944,0.6294411,0.6704848,0.33141539,0.7761984,1.1858834,1.1671646,-0.06240137,-0.15393558,0.9896476,0.7875958,-0.23194002,-0.29529756,0.7093684,979.5238,832.0513,831.6484,1023.0403,159.56044,-0.42474365234375,0.36639404296875,0.82568359375,-3.566436767578125,-0.755157470703125,1.996307373046875,1,1.0,1.0,1.0,1.0,91.28
2020-11-15 15:42:17.692,,,,,,,,,,,,,,,,,,,,,,,,,,,,,,,,,,,,,,/muse/elements/blink
2020-11-15 15:42:17.854,1.1232451,0.12484419,0.7546103,1.0317699,0.7063959,-0.08622485,0.098428935,0.5138347,0.6704848,0.13189863,0.31559664,0.99094,1.1671646,0.01727801,-0.15774296,0.97083294,0.7875958,-0.16139983,-0.19762711,0.71255076,801.4286,846.1539,842.1245,786.52014,966.63007,-0.4293212890625,0.3717041015625,0.82879638671875,-2.4822998046875,3.147735595703125,0.25421142578125,1,1.0,1.0,1.0,1.0,91.28
2020-11-15 15:42:17.923,,,,,,,,,,,,,,,,,,,,,,,,,,,,,,,,,,,,,,/muse/elements/blink
2020-11-15 15:42:18.872,1.1232451,0.9021245,1.0020837,0.9645258,0.7063959,-0.101566605,0.08951987,0.65816927,0.6704848,0.061341126,-0.038720362,0.8642012,1.1671646,-0.0080324905,-0.14193463,1.1561278,0.7875958,0.0153003065,-0.13856247,0.66850054,968.24176,836.4835,834.87177,1011.3553,1608.0952,-0.42388916015625,0.3653564453125,0.83209228515625,-2.504730224609375,1.383209228515625,1.60003662109375,1,1.0,1.0,1.0,1.0,91.28
2020-11-15 15:42:19.662,,,,,,,,,,,,,,,,,,,,,,,,,,,,,,,,,,,,,,/muse/elements/blink
2020-11-15 15:42:19.894,1.1232451,0.9007166,1.0022532,0.8535476,0.7063959,0.22341841,0.12152683,0.5473746,0.6704848,0.331199,-0.12413635,0.86227834,1.1671646,0.04720006,-0.18338943,1.064609,0.7875958,-0.12181575,-0.2455287,0.74093896,973.8828,847.3626,837.6923,981.9414,1182.6007,-0.28515625,0.144775390625,0.9129638671875,-24.187469482421875,-14.1162109375,-5.211334228515625,1,1.0,1.0,1.0,1.0,91.19
2020-11-15 15:42:19.900,,,,,,,,,,,,,,,,,,,,,,,,,,,,,,,,,,,,,,/muse/elements/blink
2020-11-15 15:42:20.431,,,,,,,,,,,,,,,,,,,,,,,,,,,,,,,,,,,,,,/muse/elements/blink
2020-11-15 15:42:20.698,,,,,,,,,,,,,,,,,,,,,,,,,,,,,,,,,,,,,,/muse/elements/blink
2020-11-15 15:42:20.915,1.1232451,0.4821275,0.5438003,0.51879257,0.7063959,0.3075347,0.064327314,0.33167133,0.6704848,0.580123,0.13180855,0.33750734,1.1671646,0.02991931,-0.18939726,0.80199355,0.7875958,-0.124762855,-0.32317492,0.833338,923.91943,855.0183,831.6484,906.5934,914.2491,-0.323974609375,0.17022705078125,0.92333984375,-0.8074951171875,7.245025634765625,2.295379638671875,1,1.0,1.0,1.0,1.0,91.19
2020-11-15 15:42:21.933,1.1232451,0.5258077,0.48848817,0.51879257,0.7063959,0.13614929,-0.059886415,0.33167133,0.6704848,0.41716963,0.32405716,0.33750734,1.1671646,-0.058509633,-0.08328455,0.80199355,0.7875958,-0.13941236,-0.2683751,0.833338,975.09155,845.7509,824.7985,1013.36993,161.97803,-0.3211669921875,0.19580078125,0.93182373046875,1.27105712890625,1.338348388671875,2.175750732421875,1,1.0,1.0,1.0,1.0,91.19
2020-11-15 15:42:22.005,,,,,,,,,,,,,,,,,,,,,,,,,,,,,,,,,,,,,,/muse/elements/blink
2020-11-15 15:42:22.946,0.56709135,0.65568703,0.57297933,0.7586469,0.3413707,0.2580968,0.07870276,0.29664877,0.95554066,0.25609913,0.28051576,1.2641395,1.0741537,0.015721472,-0.073405,1.0440307,0.9160928,-0.108955026,-0.32083845,0.8734579,763.95605,840.5128,860.2564,699.0842,133.36996,-0.3331298828125,0.18865966796875,0.92266845703125,-2.213134765625,2.160797119140625,0.83740234375,1,1.0,1.0,1.0,1.0,91.19
2020-11-15 15:42:23.050,,,,,,,,,,,,,,,,,,,,,,,,,,,,,,,,,,,,,,/muse/elements/blink
2020-11-15 15:42:23.964,0.7234713,0.91993785,0.7764875,1.1000286,0.41321817,0.59344155,0.116155714,0.43574506,0.9397805,0.5498698,0.17265797,1.2354763,1.0665464,0.08261005,-0.18457446,1.0593541,0.872946,-0.16851182,-0.4282087,0.8571255,725.6777,849.3773,849.7802,671.28204,36.666668,-0.33502197265625,0.19525146484375,0.9241943359375,-1.36077880859375,2.669219970703125,1.016845703125,1,1.0,1.0,1.0,1.0,91.19
2020-11-15 15:42:24.051,,,,,,,,,,,,,,,,,,,,,,,,,,,,,,,,,,,,,,/muse/elements/blink
2020-11-15 15:42:24.981,0.7775024,0.66658825,0.9036736,0.5554579,0.43777445,0.21266094,0.21692239,0.35978496,0.91588014,0.31189978,0.15090476,1.1346425,1.0528282,-0.0016472995,-0.10203638,0.7422689,0.81999797,-0.3503131,-0.47548467,0.66408974,710.7692,849.7802,844.1392,713.9927,941.2454,-0.33184814453125,0.2078857421875,0.91796875,-2.01873779296875,2.213134765625,1.188812255859375,1,1.0,1.0,1.0,1.0,91.19
2020-11-15 15:42:25.155,,,,,,,,,,,,,,,,,,,,,,,,,,,,,,,,,,,,,,/muse/elements/blink
2020-11-15 15:42:25.653,,,,,,,,,,,,,,,,,,,,,,,,,,,,,,,,,,,,,,/muse/elements/blink
2020-11-15 15:42:25.994,0.6006338,0.42023608,0.50176615,0.80634564,0.46362707,-0.01882453,0.17624593,0.7476895,1.0521857,0.41123945,0.42234173,1.5438976,0.85543,-0.0949892,-0.23113216,0.5871186,0.9326722,-0.29648635,-0.5251957,0.6548616,747.4359,837.6923,860.2564,738.1685,852.1978,-0.33380126953125,0.20941162109375,0.9139404296875,-1.854248046875,2.19818115234375,1.31591796875,1,1.0,1.0,1.0,1.0,91.19
2020-11-15 15:42:26.896,,,,,,,,,,,,,,,,,,,,,,,,,,,,,,,,,,,,,,/muse/elements/blink
2020-11-15 15:42:27.024,0.6867278,0.44053334,0.7215162,0.5991056,0.49169868,0.3480585,0.31087482,0.6782919,1.0163589,0.54168856,0.3915358,1.4441148,0.83424544,-0.10981108,-0.19318517,0.59573835,0.8877502,-0.322296,-0.44902012,0.787985,886.4469,850.58606,826.8132,888.46155,1581.5018,-0.33209228515625,0.23974609375,0.90460205078125,-2.773895263671875,1.3458251953125,0.35888671875,1,1.0,1.0,1.0,1.0,91.19
2020-11-15 15:42:27.229,,,,,,,,,,,,,,,,,,,,,,,,,,,,,,,,,,,,,,/muse/elements/blink
2020-11-15 15:42:28.035,0.6649447,0.58642036,1.0080647,1.4753166,0.39677376,0.5552385,0.59134483,1.0989678,0.85529095,0.46211135,0.20005919,1.0805504,0.87335724,-0.16744013,-0.32172018,0.8253461,0.90781206,-0.34144422,-0.45045483,0.6856862,955.34796,840.5128,830.84247,1014.57874,137.8022,-0.32427978515625,0.24395751953125,0.90582275390625,-1.562652587890625,2.220611572265625,1.742095947265625,1,1.0,1.0,1.0,1.0,91.19
2020-11-15 15:42:29.042,1.0436411,0.33467856,0.47871238,1.0594636,0.6467745,0.35928386,-0.030976268,0.7690463,0.49167052,0.30614445,0.2622239,0.8194147,0.6740357,-0.1758097,-0.2740722,0.6367262,1.0440317,-0.31363657,-0.60833025,0.6880639,887.25275,844.1392,842.9304,958.97437,1081.8682,-0.3314208984375,0.2459716796875,0.90576171875,-2.75146484375,2.160797119140625,1.1065673828125,1,1.0,1.0,1.0,1.0,91.13
2020-11-15 15:42:30.070,0.7842423,0.2728366,0.3737212,0.8533071,0.64487165,0.11527803,0.1185739,0.489774,0.8346509,0.21308085,0.23138514,0.77398366,0.779579,-0.14522307,-0.24099107,0.68239266,1.1553454,-0.38610065,-0.6252514,0.5857685,940.84247,837.6923,835.2747,963.4066,176.08058,-0.32989501953125,0.2559814453125,0.9114990234375,-2.534637451171875,0.16448974609375,1.1663818359375,1,1.0,1.0,1.0,1.0,91.13
2020-11-15 15:42:31.076,1.2141994,0.7199243,0.5890769,1.3798227,0.81785923,-0.028715773,0.10865303,1.03005,0.8702412,0.28067276,0.4092728,1.0391059,1.0404657,-0.033138286,-0.1922437,0.9207485,1.3606629,-0.25177157,-0.5556387,0.75258243,807.47253,852.1978,849.3773,838.9011,235.31136,-0.33868408203125,0.2470703125,0.90496826171875,-1.742095947265625,2.295379638671875,1.45050048828125,1,1.0,1.0,1.0,1.0,91.13
2020-11-15 15:42:31.752,,,,,,,,,,,,,,,,,,,,,,,,,,,,,,,,,,,,,,/muse/elements/blink
2020-11-15 15:42:32.087,1.2003732,0.6765877,0.62463707,1.0200813,0.766958,0.098019436,0.034166586,0.69999987,0.77729404,0.42090136,0.39187905,1.0683596,0.97524536,-0.014566433,-0.16526502,0.9240184,1.4040499,-0.40874892,-0.44688264,0.78141433,716.8132,840.10986,848.5714,676.1172,0.0,-0.33050537109375,0.24920654296875,0.90191650390625,-1.831817626953125,2.79632568359375,0.919647216796875,1,1.0,1.0,1.0,1.0,91.13
2020-11-15 15:42:33.104,1.2003732,0.7516779,0.61539024,1.1324803,0.766958,0.3934314,0.21126518,0.6781726,0.77729404,0.36621198,0.21104676,1.080314,0.97524536,-0.028743984,-0.18499094,0.9803779,1.4040499,-0.3843916,-0.44307017,0.744521,746.2271,858.6447,863.47986,711.978,686.5934,-0.38275146484375,0.25799560546875,0.885009765625,-2.6019287109375,2.818756103515625,1.712188720703125,1,1.0,1.0,1.0,1.0,91.13
2020-11-15 15:42:33.931,,,,,,,,,,,,,,,,,,,,,,,,,,,,,,,,,,,,,,/muse/elements/blink
2020-11-15 15:42:34.125,1.2003732,0.94123435,0.85784864,1.2048161,0.766958,0.38307855,0.3112626,0.77382195,0.77729404,0.25057822,0.191232,1.0640533,0.97524536,-0.048173327,-0.34989744,1.0053146,1.4040499,-0.3839499,-0.66892374,0.7110319,776.4469,860.2564,858.6447,750.65936,0.0,-0.37158203125,0.26104736328125,0.8917236328125,-2.51220703125,2.041168212890625,0.46356201171875,1,1.0,1.0,1.0,1.0,91.13
2020-11-15 15:42:35.134,1.2623597,0.8906814,0.9410566,1.2587909,0.9936149,0.54196775,0.20704682,0.9339774,0.9551161,0.34307972,0.06053002,0.8603869,0.5459339,-0.13823518,-0.19830817,0.57434887,0.6967282,-0.62668616,-0.59605926,0.3670478,952.52747,857.4359,812.71063,911.02563,1392.9304,-0.36767578125,0.26300048828125,0.88848876953125,-2.115936279296875,1.8243408203125,1.06170654296875,1,1.0,1.0,1.0,1.0,91.13
2020-11-15 15:42:35.232,,,,,,,,,,,,,,,,,,,,,,,,,,,,,,,,,,,,,,/muse/elements/blink
2020-11-15 15:42:36.152,1.2623597,0.7594678,0.97274405,1.308905,0.9936149,0.5127103,0.32083997,1.0103084,0.9551161,0.48746237,0.35346925,0.8603869,0.5459339,-0.14251769,-0.1808455,0.53973424,0.6967282,-0.48716956,-0.52848405,0.3674018,815.9341,844.5421,844.1392,823.5897,1227.326,-0.36907958984375,0.25726318359375,0.89404296875,-1.831817626953125,1.951446533203125,1.24114990234375,1,1.0,1.0,1.0,1.0,91.13
2020-11-15 15:42:36.539,,,,,,,,,,,,,,,,,,,,,,,,,,,,,,,,,,,,,,/muse/elements/blink
2020-11-15 15:42:37.170,1.2623597,0.9661322,0.7846682,1.308905,0.9936149,0.6925437,0.24787162,1.0103084,0.9551161,0.5946719,0.3403793,0.8603869,0.5459339,-0.07412214,-0.22075067,0.53973424,0.6967282,-0.45050725,-0.460077,0.3674018,936.0073,837.28937,837.28937,967.4359,178.9011,-0.3681640625,0.25518798828125,0.89154052734375,-3.0206298828125,2.041168212890625,1.4654541015625,1,2.0,1.0,1.0,2.0,91.13
2020-11-15 15:42:38.177,1.0135636,0.91933155,0.39852336,0.7582891,0.88583684,0.6347398,-0.010990299,0.8364468,0.578111,0.5792361,0.33810627,0.28339538,0.6668479,0.007932334,0.009132978,0.5929577,0.793742,-0.37031972,-0.16677344,0.7007641,904.57874,843.3333,829.2308,933.5897,145.05495,-0.36737060546875,0.25323486328125,0.89678955078125,-1.921539306640625,1.98883056640625,0.9869384765625,1,1.0,1.0,1.0,1.0,91.13
2020-11-15 15:42:39.179,0.76076204,0.39554918,0.3987248,0.7131686,0.56425464,-0.008106318,0.14204596,0.6965333,0.6832904,0.20694369,0.10310819,0.5626107,0.7542403,0.100205086,0.33206195,0.8219835,0.67350876,-0.1971282,0.23979421,0.63810813,951.31866,844.1392,840.5128,983.95605,1572.6373,-0.3709716796875,0.24517822265625,0.89459228515625,-2.130889892578125,4.44122314453125,0.740203857421875,1,1.0,1.0,1.0,1.0,91.05
2020-11-15 15:42:39.586,,,,,,,,,,,,,,,,,,,,,,,,,,,,,,,,,,,,,,/muse/elements/blink
2020-11-15 15:42:40.190,0.66007435,0.74799687,0.7531159,0.73768306,0.04192354,0.18247692,0.34697336,0.47298715,-0.010853225,0.17927644,0.7955074,0.35315865,0.65959597,0.23335105,0.5963646,0.8515333,0.70060605,0.15978856,0.6029045,0.59937745,888.0586,838.9011,855.0183,923.5165,890.07324,-0.3670654296875,0.2447509765625,0.8919677734375,-2.691650390625,3.327178955078125,1.293487548828125,1,1.0,1.0,1.0,1.0,91.05
2020-11-15 15:42:40.723,,,,,,,,,,,,,,,,,,,,,,,,,,,,,,,,,,,,,,/muse/elements/blink
2020-11-15 15:42:41.192,0.46498117,0.907883,0.7947193,0.73768306,0.0041282526,0.37812915,0.46782565,0.47298715,-0.059831645,0.2927607,0.7955074,0.35315865,0.62914634,0.21394084,0.56197304,0.8515333,0.7591969,-0.0012709852,0.52544516,0.59937745,921.50183,877.1795,815.5311,893.2967,830.0366,-0.3681640625,0.2325439453125,0.89508056640625,-1.069183349609375,2.026214599609375,0.261688232421875,1,1.0,1.0,1.0,1.0,91.05
2020-11-15 15:42:41.394,,,,,,,,,,,,,,,,,,,,,,,,,,,,,,,,,,,,,,/muse/elements/blink
2020-11-15 15:42:41.731,,,,,,,,,,,,,,,,,,,,,,,,,,,,,,,,,,,,,,/muse/elements/blink
2020-11-15 15:42:41.833,,,,,,,,,,,,,,,,,,,,,,,,,,,,,,,,,,,,,,/muse/elements/jaw_clench
2020-11-15 15:42:42.196,1.0628152,0.74745953,0.8719028,0.73768306,0.73939264,0.52542925,0.534052,0.47298715,1.3389039,0.729135,0.45100227,0.35315865,1.0406444,0.43812072,0.103676625,0.8515333,0.9125955,0.19760148,0.22012542,0.59937745,912.23444,839.707,846.55676,955.34796,1110.4762,-0.39422607421875,0.25799560546875,0.894287109375,0.1495361328125,-0.575714111328125,1.622467041015625,1,1.0,1.0,1.0,1.0,91.05
2020-11-15 15:42:42.640,,,,,,,,,,,,,,,,,,,,,,,,,,,,,,,,,,,,,,/muse/elements/blink
2020-11-15 15:42:43.203,1.0628152,0.58108824,0.7268662,1.3436154,0.73939264,0.47119704,0.29501644,1.0531663,1.3389039,0.6794978,0.32950324,1.0592163,1.0406444,0.57421666,-0.072426505,1.1813298,0.9125955,0.29268873,-0.06903581,0.98703533,819.5604,841.31866,843.3333,788.5348,182.52747,-0.36566162109375,0.2510986328125,0.892333984375,-2.190704345703125,2.10845947265625,0.979461669921875,1,1.0,1.0,1.0,1.0,91.05
2020-11-15 15:42:44.206,0.5552713,0.42386708,0.81725734,0.89715415,-0.016113814,0.19949447,0.100738145,0.5470142,0.20411128,0.2811757,0.19292589,0.93240553,0.433414,0.27344894,-0.34575987,0.824576,0.56846815,-0.017633751,-0.5259657,0.85662544,721.6484,851.79486,850.989,676.52014,0.0,-0.36322021484375,0.2550048828125,0.89605712890625,-2.3028564453125,2.280426025390625,0.889739990234375,1,1.0,1.0,1.0,1.0,91.05
2020-11-15 15:42:45.211,0.5320128,0.5926183,0.6766761,0.8135862,0.11406918,0.29790476,0.09201839,0.40987012,0.7856279,0.30144078,0.13924058,0.9321482,0.66269404,0.15745161,-0.39931822,0.71423686,0.6463934,-0.3160287,-0.69683135,0.5689017,736.1539,852.6007,841.31866,696.26373,0.0,-0.3546142578125,0.26556396484375,0.873046875,-2.1832275390625,4.306640625,0.740203857421875,1,1.0,1.0,1.0,1.0,91.05
2020-11-15 15:42:46.221,0.726545,0.5408792,0.49085695,0.67756486,0.4314895,0.056112748,0.02347332,0.46758214,0.91170526,0.24803178,0.24343824,0.95453054,0.6842765,0.08701755,-0.17628275,0.7183636,0.69813734,-0.10346478,-0.6368896,0.5171689,757.50916,846.1539,844.94507,748.24176,0.0,-0.3646240234375,0.25836181640625,0.888427734375,-2.392578125,1.936492919921875,1.7645263671875,1,1.0,1.0,1.0,1.0,91.05
2020-11-15 15:42:47.242,0.7803192,0.70391464,0.61809516,1.0731018,0.48989338,0.35203677,0.31772858,1.0575367,0.72194976,0.5023154,0.34166217,0.93260735,0.6272295,0.15876752,-0.19978268,0.80120504,0.50208676,-0.07837689,-0.6266949,0.84065694,850.58606,844.94507,838.49817,872.74725,1639.5238,-0.3643798828125,0.25543212890625,0.90228271484375,-2.3028564453125,2.55706787109375,1.54022216796875,1,1.0,1.0,1.0,1.0,91.05
2020-11-15 15:42:48.274,0.7420659,0.24561955,0.83368343,1.3887948,0.44220513,0.4353785,-0.055381227,1.1846887,0.6149045,0.43832794,0.32126287,0.9341393,0.56202376,0.20909795,0.16887908,0.9627587,0.5191503,-0.052600086,-0.05819028,0.9048716,831.6484,844.94507,857.4359,831.6484,1213.2234,-0.3709716796875,0.259521484375,0.89727783203125,-2.5421142578125,1.42059326171875,0.829925537109375,1,1.0,1.0,1.0,1.0,91.05
2020-11-15 15:42:48.545,,,,,,,,,,,,,,,,,,,,,,,,,,,,,,,,,,,,,,/muse/elements/blink
2020-11-15 15:42:49.047,,,,,,,,,,,,,,,,,,,,,,,,,,,,,,,,,,,,,,/muse/elements/blink
2020-11-15 15:42:49.280,1.2484944,0.48518336,0.74751824,1.5584065,0.8476827,0.13706069,0.12332898,1.0519826,1.184581,0.50354314,0.2954596,0.7547075,1.0016425,0.11835062,0.20571308,0.9722818,0.7126168,-0.19234996,-0.08463647,0.7231602,944.4689,845.34796,828.022,955.34796,175.67766,-0.3687744140625,0.2569580078125,0.88555908203125,-2.9608154296875,2.534637451171875,0.95703125,1,1.0,1.0,1.0,1.0,90.98
2020-11-15 15:42:49.853,,,,,,,,,,,,,,,,,,,,,,,,,,,,,,,,,,,,,,/muse/elements/blink
2020-11-15 15:42:50.282,1.265576,0.47355446,0.9708445,1.5584065,0.84302515,-0.00634645,0.2937718,1.0519826,1.1340929,0.38921958,0.23025423,0.7547075,0.92896867,0.08912338,0.26432234,0.9722818,0.6818773,-0.10155301,0.28654847,0.7231602,940.84247,845.34796,844.1392,953.73627,144.24908,-0.37261962890625,0.26446533203125,0.88836669921875,-2.983245849609375,1.413116455078125,0.949554443359375,1,1.0,1.0,1.0,1.0,90.98
2020-11-15 15:42:51.293,0.7698247,0.40050507,0.81721145,0.79962677,0.5395861,-0.031990618,0.17669292,0.8488765,1.0116148,0.30288464,0.1633613,1.1134694,1.1032922,0.014003031,0.07502471,0.88868845,1.0762436,-0.067974895,0.15117879,0.6918152,784.10254,863.0769,845.7509,726.8865,0.0,-0.3515625,0.26812744140625,0.89678955078125,-2.758941650390625,3.4393310546875,0.46356201171875,1,1.0,1.0,1.0,1.0,90.98
2020-11-15 15:42:51.963,,,,,,,,,,,,,,,,,,,,,,,,,,,,,,,,,,,,,,/muse/elements/blink
2020-11-15 15:42:52.322,0.8550776,0.5678551,0.89410156,1.0597868,0.5266707,0.2894339,0.45445853,0.9431878,0.5823136,0.4851761,0.58058625,1.1154052,1.0130179,0.033512827,-0.083359174,0.8329834,0.92197365,-0.065706044,-0.22138032,0.6495227,960.58606,844.1392,843.73627,985.56775,10.476191,-0.3529052734375,0.2755126953125,0.89276123046875,-1.772003173828125,4.6356201171875,1.375732421875,1,1.0,1.0,1.0,1.0,90.98
2020-11-15 15:42:52.394,,,,,,,,,,,,,,,,,,,,,,,,,,,,,,,,,,,,,,/muse/elements/blink
2020-11-15 15:42:52.969,,,,,,,,,,,,,,,,,,,,,,,,,,,,,,,,,,,,,,/muse/elements/blink
2020-11-15 15:42:53.335,0.8550776,0.5587705,0.57463676,1.4186273,0.5266707,0.29227772,-0.100329205,0.97443336,0.5823136,0.67688656,0.34397587,0.93453956,1.0130179,0.23215829,0.20748436,0.9231614,0.92197365,0.017382793,0.175248,0.653332,908.20514,828.8278,848.1685,954.5421,919.4872,-0.33807373046875,0.27294921875,0.88970947265625,-1.80938720703125,3.327178955078125,2.093505859375,1,1.0,1.0,1.0,1.0,90.98
2020-11-15 15:42:53.936,,,,,,,,,,,,,,,,,,,,,,,,,,,,,,,,,,,,,,/muse/elements/blink
2020-11-15 15:42:54.352,0.8550776,0.46197844,0.5604845,1.4186273,0.5266707,0.15262073,0.01825729,0.97443336,0.5823136,0.5223636,0.21299559,0.93453956,1.0130179,0.25530902,0.15329939,0.9231614,0.92197365,-0.020037513,0.36842495,0.653332,909.41394,831.6484,842.9304,932.381,966.2271,-0.356201171875,0.287841796875,0.89215087890625,-1.816864013671875,1.36077880859375,0.949554443359375,1,1.0,1.0,1.0,1.0,90.98
2020-11-15 15:42:54.709,,,,,,,,,,,,,,,,,,,,,,,,,,,,,,,,,,,,,,/muse/elements/blink
2020-11-15 15:42:55.377,0.8550776,0.8969003,0.87209296,1.4186273,0.5266707,0.52829367,0.19948153,0.97443336,0.5823136,0.48330113,0.07800344,0.93453956,1.0130179,0.11215792,-0.04474308,0.9231614,0.92197365,-0.20252633,0.07852026,0.653332,736.9597,856.2271,860.2564,708.3516,316.30035,-0.35308837890625,0.27825927734375,0.89739990234375,-2.75146484375,2.67669677734375,0.426177978515625,1,2.0,1.0,1.0,2.0,90.98
2020-11-15 15:42:55.947,,,,,,,,,,,,,,,,,,,,,,,,,,,,,,,,,,,,,,/muse/elements/blink
2020-11-15 15:42:56.392,0.8550776,1.2347723,1.0265473,1.4186273,0.5266707,0.7135744,0.43695423,0.97443336,0.5823136,0.38832217,0.3384066,0.93453956,1.0130179,0.20710716,-0.14558417,0.9231614,0.92197365,-0.21966028,-0.29646966,0.653332,709.15753,861.8681,842.52747,674.5055,0.0,-0.357421875,0.27130126953125,0.89215087890625,-2.5421142578125,2.474822998046875,0.755157470703125,1,2.0,1.0,1.0,2.0,90.98
2020-11-15 15:42:57.403,0.12312783,1.0304805,0.90758526,0.5807463,0.085367605,0.63982147,0.5864813,0.6246151,0.2402191,0.42709696,0.33382514,0.69628114,0.6338954,0.19480556,-0.05678123,0.6868438,0.17559491,-0.4011989,-0.14857937,0.6149099,774.83514,854.21246,851.39197,724.0659,668.86444,-0.3575439453125,0.26776123046875,0.89752197265625,-2.9608154296875,1.45050048828125,0.95703125,1,1.0,1.0,1.0,1.0,90.98
2020-11-15 15:42:58.420,0.57114655,0.29525527,0.6910225,0.8472762,0.60170805,0.24620277,-0.022132548,0.81219053,0.59843236,0.36149132,0.466816,1.1483383,0.6075321,-0.07126522,-0.20332927,0.85282594,0.23403639,-0.5892865,-0.41276136,0.554715,743.00366,857.03296,844.5421,729.304,644.68866,-0.35296630859375,0.2647705078125,0.89385986328125,-2.88604736328125,1.966400146484375,0.680389404296875,1,1.0,1.0,1.0,1.0,90.98
2020-11-15 15:42:59.431,0.5412932,0.16655952,0.52600104,0.89639294,0.5169866,0.12879375,0.2121119,0.82962644,0.7514773,0.17169437,0.6272428,1.2907022,0.6098104,-0.1361622,-0.22525771,0.75685525,0.33696917,-0.4942895,-0.4508033,0.44091344,866.7033,854.61536,848.5714,914.2491,817.9487,-0.3577880859375,0.26220703125,0.89727783203125,-2.878570556640625,2.340240478515625,1.2261962890625,1,1.0,1.0,1.0,1.0,90.89
2020-11-15 15:43:00.447,0.41625226,0.3824478,0.47269404,0.7553891,0.2580585,0.033068486,0.33398572,0.4649498,0.5958091,0.12680487,0.24782155,0.89783764,0.6667551,-0.10350722,-0.22163163,0.5481339,0.41731557,-0.48281628,-0.27715126,0.48196495,806.6667,846.9597,840.10986,813.5165,1232.1611,-0.35650634765625,0.25738525390625,0.89599609375,-2.624359130859375,2.46734619140625,0.9271240234375,1,1.0,1.0,1.0,1.0,90.89
2020-11-15 15:43:01.451,0.73941624,0.5538068,0.56254125,0.89935684,0.4157071,-0.06804795,0.25975898,0.4261389,0.3825223,0.10677347,0.2690088,0.5761594,0.64267474,-0.11842687,-0.17460781,0.6964973,0.5261292,-0.2540104,-0.23631032,0.6387082,928.3516,846.9597,838.0952,952.52747,1228.9377,-0.36114501953125,0.26263427734375,0.893310546875,-2.415008544921875,1.966400146484375,0.979461669921875,1,1.0,1.0,1.0,1.0,90.89
2020-11-15 15:43:02.461,0.7612657,0.52044237,0.37399575,0.90860295,0.3968026,0.03681216,-0.23742466,0.5123784,0.9984971,0.36749053,0.184712,0.5301375,0.44471794,0.013456732,-0.20636146,0.63403296,0.81903183,-0.20180891,-0.33517268,0.78223854,956.55676,846.9597,838.0952,985.9707,1521.4652,-0.36138916015625,0.2613525390625,0.89776611328125,-2.811279296875,1.577606201171875,0.91217041015625,1,1.0,1.0,1.0,1.0,90.89
2020-11-15 15:43:03.465,1.0011734,0.8216129,0.6775764,1.0820161,0.67180896,0.31757542,-0.027876245,0.5865584,1.03131,0.42300412,0.21378012,0.44968367,0.6164006,0.051892355,-0.23384538,0.5768398,0.73631936,-0.23286186,-0.2253651,0.8090607,739.3773,850.18317,862.27106,730.9158,0.0,-0.358154296875,0.26519775390625,0.89825439453125,-2.026214599609375,2.130889892578125,0.9271240234375,1,1.0,1.0,1.0,1.0,90.89
2020-11-15 15:43:04.484,0.93757826,0.79191047,0.70016927,1.0878421,0.55381143,0.3275997,0.1292661,0.21493225,0.9021006,0.30908906,0.12735988,0.8817347,0.9055401,0.1801046,-0.32079974,0.73876566,0.6715841,-0.0025882144,-0.50218326,0.6139858,948.0952,839.707,841.7216,992.4176,88.64469,-0.35333251953125,0.26922607421875,0.89080810546875,-2.572021484375,1.83929443359375,1.472930908203125,1,1.0,1.0,1.0,1.0,90.89
2020-11-15 15:43:05.004,,,,,,,,,,,,,,,,,,,,,,,,,,,,,,,,,,,,,,/muse/elements/blink
2020-11-15 15:43:05.502,1.0458395,0.7508423,0.9308176,1.1346126,0.25287223,0.10710405,0.38035816,0.24879631,0.77093905,0.15882117,0.0952494,0.8744313,0.73376113,-0.0430137,-0.2567753,0.7244811,0.43785203,-0.14848949,-0.5474043,0.63195664,896.1172,852.1978,840.5128,927.9487,1039.9634,-0.3558349609375,0.27166748046875,0.89715576171875,-1.4654541015625,4.628143310546875,0.299072265625,1,1.0,1.0,1.0,1.0,90.89
2020-11-15 15:43:06.412,,,,,,,,,,,,,,,,,,,,,,,,,,,,,,,,,,,,,,/muse/elements/blink
2020-11-15 15:43:06.519,1.1222903,0.69807416,0.8157133,1.1858078,0.2724402,0.2038844,0.42836583,0.29052702,0.49143898,0.3526705,0.011337867,0.8616962,0.5325636,-0.104435846,-0.075485386,0.7232609,0.26750466,-0.29829308,-0.1211749,0.65598226,837.28937,864.2857,836.4835,806.26373,421.4652,-0.3524169921875,0.27197265625,0.8970947265625,-3.0804443359375,2.37762451171875,0.710296630859375,1,1.0,1.0,1.0,1.0,90.89
2020-11-15 15:43:07.538,1.1222903,0.44138744,0.87482053,1.1858078,0.2724402,0.108734764,0.24066792,0.29052702,0.49143898,0.35868344,0.25218898,0.8616962,0.5325636,-0.009306149,-0.08946062,0.7232609,0.26750466,-0.24044298,-0.27991593,0.65598226,820.3663,859.85345,851.79486,806.6667,1143.9194,-0.35235595703125,0.270263671875,0.89447021484375,-2.429962158203125,1.83929443359375,0.904693603515625,1,2.0,1.0,1.0,2.0,90.89
2020-11-15 15:43:08.567,0.8832845,0.54056555,0.8289532,0.9910018,0.70631653,0.19904839,0.33272046,0.58785886,0.6197603,0.26054,0.19411324,0.8384073,0.73726183,0.08919861,-0.39587414,0.7543105,0.56715393,-0.16726613,-0.88042665,0.63925135,746.63007,855.82416,855.82416,708.7546,0.0,-0.35296630859375,0.26947021484375,0.89398193359375,-2.699127197265625,2.265472412109375,0.814971923828125,1,1.0,1.0,1.0,1.0,90.89
2020-11-15 15:43:09.572,1.097959,0.7638635,0.88236105,1.1974536,0.8856518,0.48201832,0.35559973,0.58513767,0.68416077,0.56148237,0.24381629,0.8441511,0.7232828,0.114068896,-0.19607024,0.7185435,0.61306125,-0.28484312,-0.78538793,0.6647649,845.34796,847.76556,847.76556,842.52747,1341.7583,-0.3502197265625,0.27484130859375,0.89080810546875,-3.416900634765625,2.1533203125,-0.471038818359375,1,1.0,1.0,1.0,1.0,90.84
2020-11-15 15:43:10.145,,,,,,,,,,,,,,,,,,,,,,,,,,,,,,,,,,,,,,/muse/elements/blink
2020-11-15 15:43:10.576,0.677779,0.71768475,0.39043257,0.8861574,0.54849505,0.47182858,0.014868408,0.03758456,0.48191777,0.6001751,0.25039822,0.48587838,0.65948534,0.07925005,-0.18980832,0.7773481,0.61428005,-0.3409468,-0.6437782,0.6006427,832.0513,850.18317,851.79486,826.0073,1340.1465,-0.3497314453125,0.2769775390625,0.89849853515625,-2.265472412109375,2.37762451171875,0.037384033203125,1,1.0,1.0,1.0,1.0,90.84
2020-11-15 15:43:11.584,0.677779,0.79747516,0.53364134,1.0777644,0.54849505,0.2783467,0.36223885,-0.030313527,0.48191777,0.33488432,0.42834255,0.37963107,0.65948534,-0.107333526,-0.25333366,0.83324134,0.61428005,-0.32608595,-0.48297095,0.5506534,827.619,850.58606,841.31866,843.73627,276.41025,-0.3631591796875,0.26397705078125,0.8914794921875,-1.0467529296875,1.951446533203125,2.85614013671875,1,1.0,1.0,1.0,1.0,90.84
2020-11-15 15:43:11.988,,,,,,,,,,,,,,,,,,,,,,,,,,,,,,,,,,,,,,/muse/elements/jaw_clench
2020-11-15 15:43:12.605,0.677779,0.4590383,0.7670883,1.0777644,0.54849505,0.124828056,0.45740914,-0.030313527,0.48191777,-0.013362537,0.48038912,0.37963107,0.65948534,0.22724004,0.0029992177,0.83324134,0.61428005,0.30410767,-0.034345277,0.5506534,898.93774,870.7326,835.6777,927.5458,78.97436,-0.3531494140625,0.26519775390625,0.88330078125,-1.772003173828125,2.370147705078125,1.906585693359375,1,1.0,1.0,1.0,1.0,90.84
2020-11-15 15:43:12.994,,,,,,,,,,,,,,,,,,,,,,,,,,,,,,,,,,,,,,/muse/elements/blink
2020-11-15 15:43:13.194,,,,,,,,,,,,,,,,,,,,,,,,,,,,,,,,,,,,,,/muse/elements/blink
2020-11-15 15:43:13.622,0.677779,0.85556656,0.778888,1.0777644,0.54849505,0.23495957,0.46010286,-0.030313527,0.48191777,0.2724395,0.383931,0.37963107,0.65948534,0.4764801,-0.0021829526,0.83324134,0.61428005,0.384241,-0.1940621,0.5506534,966.63007,831.2454,843.3333,1004.90845,79.37729,-0.3375244140625,0.27484130859375,0.8984375,-3.222503662109375,-0.37384033203125,1.24114990234375,1,2.0,1.0,1.0,2.0,90.84
2020-11-15 15:43:14.431,,,,,,,,,,,,,,,,,,,,,,,,,,,,,,,,,,,,,,/muse/elements/blink
2020-11-15 15:43:14.635,0.677779,1.0154072,0.14460695,1.0777644,0.54849505,0.42790806,0.41867036,-0.030313527,0.48191777,0.4612181,0.09351265,0.37963107,0.65948534,0.2091307,-0.21287547,0.83324134,0.61428005,-0.30263495,-0.6475308,0.5506534,889.2674,834.4689,845.34796,929.9634,959.3773,-0.333251953125,0.26641845703125,0.8924560546875,-4.673004150390625,2.6019287109375,-0.299072265625,1,2.0,1.0,1.0,2.0,90.84
2020-11-15 15:43:15.650,0.677779,1.0758392,0.39048532,1.0777644,0.54849505,0.53345996,0.48510683,-0.030313527,0.48191777,0.16165927,0.24401012,0.37963107,0.65948534,0.15630819,-0.17934847,0.83324134,0.61428005,-0.61145294,-0.42113134,0.5506534,809.4872,836.08057,838.49817,801.02563,1158.8279,-0.3677978515625,0.26483154296875,0.90130615234375,-3.2000732421875,2.1234130859375,2.429962158203125,1,2.0,1.0,1.0,2.0,90.84
2020-11-15 15:43:16.669,0.98214155,0.56535953,0.7457517,1.0603238,0.7058966,0.06398444,0.109036356,0.44405338,0.5835841,5.186988E-4,0.29694954,0.574896,0.6274688,-0.03892673,-0.09484241,0.95900357,0.3911288,-0.6749107,-0.47842804,0.54645175,814.7253,848.1685,846.1539,806.26373,97.91209,-0.36236572265625,0.253662109375,0.921630859375,-4.50103759765625,2.624359130859375,5.96649169921875,1,1.0,1.0,1.0,1.0,90.84
2020-11-15 15:43:17.682,0.7305,0.23003016,0.79385954,1.200404,0.5367626,-0.06432324,0.19288865,0.5237241,0.6140071,-0.13018207,0.16901797,0.6128556,0.577118,0.11326554,-0.13087775,0.50499123,0.30128014,-0.6154178,-0.58694565,0.25554785,754.2857,847.76556,844.94507,734.94507,0.0,-0.3280029296875,0.3173828125,0.890869140625,-3.78326416015625,1.27105712890625,6.89361572265625,1,1.0,1.0,1.0,1.0,90.84
2020-11-15 15:43:18.711,0.39913687,0.18360901,0.6002473,0.99815583,0.034851488,-0.18525562,0.009192789,0.3601929,0.44117066,0.0833845,0.011643783,0.6414644,0.6942463,6.336497E-5,-0.005973881,0.47661427,0.5435882,-0.7749114,-0.280161,0.35040617,774.83514,858.6447,858.24176,740.58606,0.0,-0.307373046875,0.30670166015625,0.90728759765625,-2.49725341796875,0.904693603515625,0.381317138671875,1,1.0,1.0,1.0,1.0,90.84
2020-11-15 15:43:19.724,0.1415309,0.3257322,0.24115498,0.5112686,-0.037945013,0.02183539,0.023310168,0.11505414,0.32285866,0.15462483,-0.04587153,0.6748209,0.72008127,-0.102252744,0.095168784,0.42483568,0.6250667,-0.7330894,-0.036478594,0.4286931,875.56775,847.3626,846.9597,896.9231,856.2271,-0.289794921875,0.30401611328125,0.908935546875,-2.758941650390625,1.79443359375,0.097198486328125,1,1.0,1.0,1.0,1.0,90.75
2020-11-15 15:43:20.739,0.3658783,0.32266057,0.3917228,0.672437,0.23740478,0.02883192,-0.11741761,0.22147524,0.23780052,0.28745934,-0.1017621,0.67683965,0.61809886,-0.13742739,0.075728744,0.5404292,0.4752856,-0.5535824,-0.06169377,0.3100616,823.5897,850.58606,850.18317,831.6484,1179.3773,-0.28570556640625,0.29791259765625,0.91400146484375,-2.564544677734375,1.936492919921875,0.82244873046875,1,1.0,1.0,1.0,1.0,90.75
2020-11-15 15:43:21.759,0.64431727,0.28262427,0.18697885,0.69661766,0.4956842,0.07455883,-0.21880358,0.1399956,0.333951,0.35524318,-0.05361361,0.27830294,0.51649034,-0.17709035,6.346335E-4,0.44193742,0.44890344,-0.6794924,-0.30492598,0.26309228,809.0842,854.61536,835.2747,801.02563,1040.3663,-0.28155517578125,0.2969970703125,0.91278076171875,-2.4822998046875,1.876678466796875,1.1065673828125,1,1.0,1.0,1.0,1.0,90.75
2020-11-15 15:43:22.775,0.5393631,0.35361108,0.47186553,0.7487133,0.03435668,0.041771322,-0.087088,0.19314149,0.33406872,0.14038236,0.08527935,0.3419549,0.56702965,-0.15601218,0.16925503,0.44669768,0.48671994,-0.6596105,0.036280278,0.2516138,867.1062,860.65936,844.94507,889.2674,59.6337,-0.287353515625,0.29571533203125,0.90545654296875,-1.398162841796875,6.273040771484375,1.084136962890625,1,1.0,1.0,1.0,1.0,90.75
2020-11-15 15:43:22.936,,,,,,,,,,,,,,,,,,,,,,,,,,,,,,,,,,,,,,/muse/elements/blink
2020-11-15 15:43:23.804,0.8142074,0.39724252,0.78629047,1.0356733,0.11526034,-0.04627702,0.3434687,0.4410009,0.05913259,0.23853028,0.33671618,0.67354524,0.59457743,0.0071641523,0.13108453,0.6433657,0.28689694,-0.5140699,-0.1045702,0.36169648,745.42126,853.8095,847.3626,738.97437,0.0,-0.29302978515625,0.31768798828125,0.910888671875,0.13458251953125,3.3197021484375,1.435546875,1,1.0,1.0,1.0,1.0,90.75
2020-11-15 15:43:24.814,1.2851981,0.23804301,0.66493744,1.1295599,0.82061183,-0.052627813,-0.1475224,0.67899436,0.65976024,0.19433762,0.112039536,0.67354524,0.82755524,0.04864313,-0.15362002,0.70571643,0.47196662,-0.48163837,-0.6407039,0.5156952,889.67035,811.0989,850.58606,915.8608,1076.227,-0.35491943359375,0.4869384765625,0.841064453125,-0.16448974609375,4.523468017578125,3.775787353515625,1,1.0,1.0,1.0,1.0,90.75
2020-11-15 15:43:25.831,0.7834474,0.4301158,0.680583,0.92968863,0.39691868,0.016727058,0.115998715,0.3462637,0.56115633,0.042306125,0.3055409,0.9857399,0.65652364,0.082823195,-0.28500614,0.6831284,0.4324773,-0.4772763,-0.8691999,0.44194442,923.5165,843.3333,844.5421,905.38464,687.8022,-0.2589111328125,0.55474853515625,0.78717041015625,-1.12152099609375,-2.82623291015625,4.344024658203125,1,1.0,1.0,1.0,1.0,90.75
2020-11-15 15:43:26.852,0.5069495,0.8332169,0.79626435,0.81858367,0.15336315,0.3348781,0.0965316,0.75969076,0.5497062,0.5283918,0.20721605,1.3143519,0.67215866,-0.13873303,-0.19418912,0.77912134,0.5048937,-0.4737183,-0.6078699,0.64592654,857.03296,848.97437,848.5714,858.6447,576.1905,-0.33099365234375,0.4586181640625,0.8614501953125,-7.932891845703125,-15.1031494140625,-13.704986572265625,1,1.0,1.0,1.0,1.0,90.75
2020-11-15 15:43:27.860,0.706046,0.88973737,0.9369158,0.99683815,0.22039926,0.58247566,0.16986504,1.0903336,0.5368738,0.7896681,0.06522005,1.3338817,0.8821265,0.31552443,-0.16171087,0.8075195,0.6840466,-0.30949745,-0.25946644,0.6124923,932.7839,846.9597,826.4103,963.4066,1415.4945,-0.257080078125,0.45147705078125,0.856689453125,-2.22808837890625,2.16827392578125,1.00189208984375,1,1.0,1.0,1.0,1.0,90.75
2020-11-15 15:43:28.880,0.6505282,0.69133127,0.99561214,0.8581481,0.65124726,0.26845056,0.22775602,0.49439988,0.68248606,0.67049485,0.06522005,0.7809678,0.74297404,0.08085862,-0.14791143,0.6693368,0.59797305,-0.5806394,-0.1735074,0.51386327,794.9817,861.4652,720.84247,780.87915,0.0,-0.27056884765625,0.391357421875,0.88446044921875,-8.291778564453125,-0.35888671875,-10.624542236328125,1,1.0,1.0,1.0,1.0,90.70
2020-11-15 15:43:29.900,0.23006043,0.5392766,0.99561214,0.49212158,-0.03985206,0.15082988,0.22775602,0.15937124,0.45821378,0.0067379484,0.06522005,0.47704318,0.67333,-0.21767586,-0.14791143,0.6023566,0.5476605,-0.6000942,-0.1735074,0.6558991,806.6667,857.03296,849.3773,820.7692,172.85715,-0.26678466796875,0.3988037109375,0.8798828125,-1.9439697265625,1.6748046875,1.293487548828125,1,1.0,1.0,1.0,1.0,90.70
2020-11-15 15:43:30.904,0.37224686,0.5342962,0.99561214,0.59455764,-0.035254538,0.25768122,0.22775602,0.4514843,0.2858586,-0.11341549,0.06522005,0.79214865,0.71618766,-0.32099342,-0.14791143,0.8994871,0.8417804,-0.43598142,-0.1735074,0.8929593,806.6667,846.1539,870.7326,782.8938,921.0989,-0.27325439453125,0.40631103515625,0.8770751953125,-2.235565185546875,-0.456085205078125,1.92901611328125,1,1.0,1.0,1.0,1.0,90.70
2020-11-15 15:43:31.913,1.1944876,0.39129847,0.99561214,0.83099806,0.284477,0.20521705,0.22775602,0.4137916,0.74585027,0.043989256,0.06522005,0.8364131,0.85080785,-0.16662145,-0.14791143,0.90710527,0.40191647,-0.51187164,-0.1735074,0.6866444,867.50916,855.0183,856.63007,853.8095,542.74725,-0.24932861328125,0.4139404296875,0.885009765625,-2.340240478515625,1.383209228515625,1.099090576171875,1,1.0,1.0,1.0,1.0,90.70
2020-11-15 15:43:32.930,1.0421551,-0.0047803177,0.58156276,0.6644167,0.36765623,-0.19649288,0.23386092,0.18533202,0.74585027,0.051381167,0.17536469,0.64397585,0.7460801,-0.057868276,0.28637555,0.7016165,0.26827505,-0.66801655,0.4154044,0.58963317,856.2271,842.52747,863.47986,838.49817,1359.0842,-0.2474365234375,0.40130615234375,0.875244140625,-0.777587890625,2.1234130859375,3.54400634765625,1,1.0,1.0,1.0,1.0,90.70
2020-11-15 15:43:33.890,,,,,,,,,,,,,,,,,,,,,,,,,,,,,,,,,,,,,,/muse/elements/blink
2020-11-15 15:43:33.948,0.9614948,0.734205,0.4331538,0.9512086,0.79902095,0.2394444,0.11342306,0.5163511,0.79436374,0.11064673,0.37972274,0.36301377,0.83058184,-0.061656535,0.4905036,0.7781207,0.68502694,-0.56095314,0.48067233,0.6706814,838.0952,854.21246,848.1685,826.4103,1185.8242,-0.23626708984375,0.3751220703125,0.8875732421875,-5.196380615234375,2.579498291015625,-7.476806640625,1,1.0,1.0,1.0,1.0,90.70
2020-11-15 15:43:34.953,0.8159139,1.1964226,0.8331693,0.9512086,0.888012,0.6306648,-0.014065963,0.5163511,0.7683071,0.5083118,0.31690937,0.36301377,0.8573219,0.112795435,0.5743296,0.7781207,0.73811185,-0.22450371,0.53137285,0.6706814,888.86444,839.304,832.4542,886.04395,16.117216,-0.24627685546875,0.36822509765625,0.9034423828125,-2.669219970703125,0.28411865234375,4.687957763671875,1,1.0,1.0,1.0,1.0,90.70
2020-11-15 15:43:35.961,0.7193591,0.8629051,0.98919,0.9512086,0.87274575,0.5218489,-0.06105685,0.5163511,0.70676607,0.6212232,0.31690937,0.36301377,0.81679446,0.14390902,0.5882554,0.7781207,0.71887535,-0.3539675,0.53420824,0.6706814,792.1612,851.39197,856.2271,727.28937,0.0,-0.23779296875,0.354248046875,0.90966796875,-2.833709716796875,1.128997802734375,0.61309814453125,1,1.0,1.0,1.0,1.0,90.70
2020-11-15 15:43:36.965,0.7193591,0.4307512,1.1625594,1.0541801,0.87274575,0.3608465,0.44689324,1.0390619,0.70676607,0.53248465,0.43348497,1.112275,0.81679446,0.045640055,0.3146254,0.88692033,0.71887535,-0.5654642,0.20724355,0.28920618,912.23444,849.3773,850.18317,946.4835,172.05128,-0.24957275390625,0.33404541015625,0.91015625,-1.30096435546875,1.92901611328125,2.40753173828125,1,1.0,1.0,1.0,1.0,90.70
2020-11-15 15:43:37.981,1.2602714,0.71039003,1.0811567,1.395538,1.0601065,0.6275227,0.4022881,1.3090419,0.78697795,0.4800017,0.2773126,1.1360832,0.6505322,0.07853912,0.10260652,0.89887786,0.4247854,-0.2862199,-0.019645728,0.3439808,894.90845,850.989,844.5421,929.9634,1164.4689,-0.2423095703125,0.33837890625,0.91107177734375,-2.459869384765625,1.278533935546875,1.443023681640625,1,1.0,1.0,1.0,1.0,90.70
2020-11-15 15:43:39.008,1.3391433,0.3039488,0.5983415,0.9520188,1.0708326,0.24851318,0.085308686,0.30255497,0.93654054,0.24043246,0.11139844,0.0490245,0.6171768,-0.0136667555,-0.27250278,0.59555274,0.3623299,-0.51250535,-0.44557166,0.3029805,917.0696,839.707,853.00366,958.97437,1400.1831,-0.22418212890625,0.3443603515625,0.90972900390625,-3.581390380859375,0.25421142578125,0.8074951171875,1,1.0,1.0,1.0,1.0,90.61
2020-11-15 15:43:40.025,1.3880725,0.5479196,0.9498808,0.8552607,0.99337655,0.09638815,0.20182416,0.33971837,0.7903061,0.35933983,0.40718892,0.4483549,0.5584463,-0.27237356,0.085791014,0.57459843,0.25371414,-0.58647275,-0.020277891,0.2098725,887.25275,843.73627,843.73627,877.1795,1585.1282,-0.222900390625,0.32330322265625,0.93817138671875,-2.94586181640625,1.9439697265625,1.188812255859375,1,1.0,1.0,1.0,1.0,90.61
2020-11-15 15:43:41.057,1.5330571,0.45667425,0.73870283,0.6657468,1.2192208,0.16177459,0.31145075,0.45827276,1.1570626,0.56761646,0.4732357,0.7540046,0.73131365,-0.030899148,0.26540852,0.7316912,0.31146538,-0.6042788,0.15903099,0.20442744,857.8388,845.7509,847.3626,878.3883,868.315,-0.22100830078125,0.33013916015625,0.9229736328125,-2.743988037109375,1.854248046875,1.5252685546875,1,1.0,1.0,1.0,1.0,90.61
2020-11-15 15:43:42.074,1.6581776,0.30431223,0.7353598,0.86992604,1.3173726,0.21609932,0.5198488,0.8500252,1.1546315,0.66313565,0.38605374,0.7779034,0.83575845,0.039121658,0.019313158,0.9082913,0.36007917,-0.32761285,-0.21688886,0.65107363,827.619,853.4066,838.9011,857.4359,307.03296,-0.23883056640625,0.33807373046875,0.92803955078125,-2.549591064453125,3.050537109375,1.0467529296875,1,1.0,1.0,1.0,1.0,90.61
2020-11-15 15:43:42.452,,,,,,,,,,,,,,,,,,,,,,,,,,,,,,,,,,,,,,/muse/elements/blink
2020-11-15 15:43:43.085,1.6581776,0.9149747,1.1616151,0.9079926,1.3173726,0.34810212,0.2507072,1.0136468,1.1546315,0.595459,0.5285289,0.65025026,0.83575845,0.050730087,0.007906308,0.92613274,0.36007917,-0.2215934,-0.21823832,0.829329,786.1172,853.00366,862.674,767.5824,190.98901,-0.229248046875,0.3543701171875,0.90802001953125,-2.4224853515625,1.786956787109375,1.039276123046875,1,1.0,1.0,1.0,1.0,90.61
2020-11-15 15:43:44.113,1.1719337,0.3912839,0.99092376,0.9079926,0.8741357,0.102741815,-0.0542749,1.0136468,0.38027036,0.31875408,0.05907758,0.65025026,0.42532143,-0.03748688,0.5219536,0.92613274,0.15076463,-0.5937023,0.38509673,0.829329,779.2674,845.34796,852.6007,771.2088,100.32967,-0.21978759765625,0.33831787109375,0.925048828125,-3.03558349609375,2.235565185546875,0.79254150390625,1,1.0,1.0,1.0,1.0,90.61
2020-11-15 15:43:45.128,0.6772448,0.21607773,0.748089,0.20099664,0.78117996,0.12792446,0.13609323,0.052989017,0.6754178,0.44683835,0.20408991,0.43286043,0.47635466,-0.17397207,0.4400999,0.46748176,0.29394117,-0.739104,0.30759823,0.17439562,820.3663,847.3626,832.4542,810.293,1075.4213,-0.22003173828125,0.3380126953125,0.916259765625,-2.34771728515625,2.803802490234375,1.21124267578125,1,1.0,1.0,1.0,1.0,90.61
2020-11-15 15:43:46.158,0.7611568,-0.12970594,0.533202,0.47300997,0.53655463,-0.032357905,0.11865482,0.121858224,0.6400361,0.30734608,0.18275058,0.73004705,0.4939648,-0.19275029,0.28355587,0.5014701,0.18956822,-0.7364617,0.23923576,0.30455494,896.1172,857.8388,830.84247,904.57874,83.00366,-0.228515625,0.33514404296875,0.9200439453125,-2.400054931640625,-0.336456298828125,0.9869384765625,1,1.0,1.0,1.0,1.0,90.61
2020-11-15 15:43:47.162,0.5341788,0.48957953,0.6940161,0.4268043,0.39081737,0.23451665,0.5598729,0.12692098,0.3104794,0.123953745,0.6136437,0.2663018,0.40720114,-0.013962451,0.18443105,0.47559968,-0.07260888,-0.64377654,0.08548038,0.29157194,913.44324,856.63007,840.10986,962.1978,142.23444,-0.22467041015625,0.345703125,0.9158935546875,-3.2000732421875,2.28790283203125,-0.34393310546875,1,1.0,1.0,1.0,1.0,90.61
2020-11-15 15:43:48.167,0.33540538,0.9341077,1.0392627,1.1399685,0.3042383,0.4504611,0.8040041,0.9301338,0.190036,0.43989775,0.68815774,1.0386254,0.43223622,-0.05016826,0.05581594,0.7736912,-0.069583975,-0.3931789,-0.052743185,0.76519895,771.6117,835.2747,838.0952,730.5128,340.87912,-0.22174072265625,0.35107421875,0.9185791015625,0.35888671875,0.874786376953125,1.099090576171875,1,1.0,1.0,1.0,1.0,90.61
2020-11-15 15:43:49.178,1.0225296,0.64186484,0.90577,1.1136649,0.8636851,0.049022365,0.50382185,0.80333817,1.157361,0.42771894,0.43285027,0.97708476,0.9854232,-0.13659379,0.19465351,0.71613413,0.7358467,-0.48407227,0.019448856,0.6150845,889.2674,850.58606,838.9011,940.4396,1277.6923,-0.287841796875,0.37908935546875,0.8868408203125,-3.013153076171875,2.758941650390625,-0.52337646484375,1,1.0,1.0,1.0,1.0,90.55
2020-11-15 15:43:50.195,0.74021137,0.5613037,0.7406976,1.1241939,0.40839037,-0.0018906649,0.23309681,0.63440615,0.19444609,0.15820053,0.29293528,0.71862817,0.8043941,-0.0181745,0.42916209,0.6276021,0.5659685,-0.41005155,0.0859611,0.58459485,899.34064,838.0952,842.9304,931.978,1415.8975,-0.25140380859375,0.3704833984375,0.90692138671875,-2.893524169921875,1.622467041015625,0.897216796875,1,1.0,1.0,1.0,1.0,90.55
2020-11-15 15:43:51.214,0.74021137,0.37533098,0.5434192,0.9069677,0.40839037,0.16305736,-0.016016958,0.75547504,0.19444609,0.118539356,0.023433067,0.54015183,0.8043941,-0.14796357,-0.0075952555,0.5067186,0.5659685,-0.5178653,0.035278376,0.50618684,908.20514,841.31866,839.304,956.1539,76.15385,-0.24114990234375,0.37335205078125,0.91015625,-2.52716064453125,3.22998046875,1.854248046875,1,1.0,1.0,1.0,1.0,90.55
2020-11-15 15:43:51.855,,,,,,,,,,,,,,,,,,,,,,,,,,,,,,,,,,,,,,/muse/elements/blink
2020-11-15 15:43:52.218,0.991565,0.47593036,1.0653641,0.5986963,1.1264484,0.50228685,0.112102754,0.76075655,1.0716343,0.3882588,0.44331887,0.4496154,0.87256926,-0.09021679,-0.02776922,0.35896993,0.98822355,-0.45882568,0.09914514,0.34311697,927.5458,842.9304,850.989,927.9487,85.82417,-0.25482177734375,0.35589599609375,0.9056396484375,-1.80938720703125,1.846771240234375,1.712188720703125,1,1.0,1.0,1.0,1.0,90.55
2020-11-15 15:43:53.225,1.2229583,0.677693,1.2761738,1.0856982,1.3824443,0.50077397,0.458269,0.66681063,1.0716343,0.42788228,0.5047621,1.1155798,1.0926919,0.2297544,0.25147995,0.71486247,1.2173008,-0.16121942,0.106254846,0.8634583,903.36993,844.1392,840.5128,929.15753,1226.1172,-0.25506591796875,0.3485107421875,0.9049072265625,-2.504730224609375,2.28790283203125,0.73272705078125,1,1.0,1.0,1.0,1.0,90.55
2020-11-15 15:43:54.229,0.6556245,0.7510807,0.8129325,1.0284191,0.62701696,0.38203314,0.33035758,0.4530206,0.54595673,0.4804984,0.3282608,0.51354694,0.8038371,0.13475958,0.41021475,0.5792498,0.6505154,-0.34116316,0.17986612,0.67857623,848.97437,876.77655,821.5751,882.4176,977.1062,-0.271240234375,0.33203125,0.9141845703125,-4.344024658203125,1.353302001953125,-1.218719482421875,1,1.0,1.0,1.0,1.0,90.55
2020-11-15 15:43:55.239,0.8167151,0.9307619,1.036784,0.9035431,0.33185777,0.26334628,0.31752056,0.8149905,0.49176195,0.36045524,0.3148017,0.9019242,0.8655687,0.21388356,0.35155064,1.2324114,1.0368112,0.20690298,0.39686963,1.3283354,823.9927,835.6777,842.1245,771.6117,140.62271,-0.27764892578125,0.31341552734375,0.89605712890625,-2.6617431640625,-10.57220458984375,-1.742095947265625,1,1.0,1.0,1.0,1.0,90.55
2020-11-15 15:43:56.245,0.8167151,0.8039106,0.873058,0.9035431,0.33185777,0.12892933,0.2046117,0.8149905,0.49176195,0.39434472,0.2102852,0.9019242,0.8655687,0.6313931,0.14940748,1.2324114,1.0368112,0.6812483,0.026783166,1.3283354,930.7692,833.663,862.674,932.381,1229.7435,-0.33135986328125,0.284423828125,0.9140625,-5.555267333984375,-3.955230712890625,-0.46356201171875,1,1.0,1.0,1.0,1.0,90.55
2020-11-15 15:43:56.378,,,,,,,,,,,,,,,,,,,,,,,,,,,,,,,,,,,,,,/muse/elements/blink
2020-11-15 15:43:56.678,,,,,,,,,,,,,,,,,,,,,,,,,,,,,,,,,,,,,,/muse/elements/jaw_clench
2020-11-15 15:43:57.282,0.8167151,0.39931756,0.4619587,1.6379184,0.33185777,-0.21535404,-0.0274332,1.3976759,0.49176195,0.18615314,0.010194922,1.1578987,0.8655687,0.72657675,0.28407365,1.3725885,1.0368112,0.84550256,0.22239532,1.4163476,717.2161,968.24176,840.5128,691.02563,22.564102,-0.2662353515625,0.23651123046875,0.92315673828125,-3.925323486328125,1.054229736328125,0.082244873046875,1,1.0,1.0,1.0,1.0,90.55
