TimeStamp,Delta_TP9,Delta_AF7,Delta_AF8,Delta_TP10,Theta_TP9,Theta_AF7,Theta_AF8,Theta_TP10,Alpha_TP9,Alpha_AF7,Alpha_AF8,Alpha_TP10,Beta_TP9,Beta_AF7,Beta_AF8,Beta_TP10,Gamma_TP9,Gamma_AF7,Gamma_AF8,Gamma_TP10,RAW_TP9,RAW_AF7,RAW_AF8,RAW_TP10,AUX_RIGHT,Accelerometer_X,Accelerometer_Y,Accelerometer_Z,Gyro_X,Gyro_Y,Gyro_Z,HeadBandOn,HSI_TP9,HSI_AF7,HSI_AF8,HSI_TP10,Battery,Elements
2022-02-26 15:12:12.904,0.61156774,-0.016322182,0.28792503,0.7133191,0.6079981,-0.39399767,-0.5537825,0.4528496,0.5512615,0.15516002,-0.2538605,0.21274163,0.49885917,-0.24154864,-0.37269327,0.39437616,0.28540495,-0.27001107,-0.65959907,0.2076049,759.5238,854.61536,854.21246,841.31866,842.1245,-0.021240234375,0.1878662109375,0.9765625,-2.093505859375,2.833709716796875,0.46356201171875,1,1.0,1.0,1.0,1.0,77.11
2022-02-26 15:12:13.598,,,,,,,,,,,,,,,,,,,,,,,,,,,,,,,,,,,,,,/muse/elements/blink
2022-02-26 15:12:13.936,0.61156774,0.24571766,0.7711809,0.5523482,0.6079981,0.13825731,-0.053537667,0.22766706,0.5512615,-0.0029141207,0.6038817,-0.023136236,0.49885917,-0.2802144,-0.15817091,0.3786853,0.28540495,-0.115107775,-0.45609456,0.08258018,970.2564,864.68866,850.18317,884.83514,810.696,-0.13055419921875,0.22308349609375,0.96795654296875,4.9346923828125,1.42059326171875,5.330963134765625,1,1.0,1.0,1.0,1.0,77.02
2022-02-26 15:12:14.949,0.61156774,0.29376107,0.9371493,0.5523482,0.6079981,0.25261584,0.16175205,0.22766706,0.5512615,0.10727475,0.61190206,-0.023136236,0.49885917,0.054505635,0.19972011,0.3786853,0.28540495,0.261527,0.103781976,0.08258018,894.90845,853.00366,846.9597,827.619,718.8278,-0.13018798828125,0.2567138671875,0.939697265625,7.29736328125,5.435638427734375,23.095855712890625,1,2.0,1.0,1.0,2.0,77.02
2022-02-26 15:12:15.972,0.61156774,-0.14364171,0.20930871,1.4287521,0.6079981,-0.36232674,-0.37255734,1.46186,0.5512615,0.054873094,0.03336885,1.4454811,0.49885917,0.36856103,0.23381215,1.0902449,0.28540495,0.35739446,0.32283443,0.6642622,905.78754,839.304,856.2271,861.06226,862.27106,-0.07659912109375,0.3076171875,0.9693603515625,4.91973876953125,4.643096923828125,-4.837493896484375,1,1.0,1.0,1.0,1.0,77.02
2022-02-26 15:12:16.991,0.61156774,0.34082168,0.42117923,1.0427613,0.6079981,-0.36869037,-0.24827565,0.64328384,0.5512615,0.09261585,0.05730482,0.97183365,0.49885917,0.23485917,0.15338048,1.0229813,0.28540495,0.22027268,0.17298129,0.81429225,916.6667,844.1392,828.4249,856.63007,849.7802,-0.23651123046875,0.22210693359375,0.96917724609375,-9.869384765625,7.080535888671875,-3.06549072265625,1,1.0,1.0,1.0,1.0,77.02
2022-02-26 15:12:18.004,0.61156774,0.47097906,0.16735055,0.77099615,0.6079981,-0.13980114,-0.3750834,0.74964875,0.5512615,0.06589081,-0.034921397,1.0882523,0.49885917,0.19281673,-0.0035199663,0.8709818,0.28540495,0.30563414,0.1708879,1.0202194,773.22345,844.5421,826.8132,878.3883,524.21246,-0.10906982421875,0.214599609375,1.007568359375,-9.054412841796875,-12.164764404296875,0.800018310546875,1,1.0,1.0,1.0,1.0,77.02
2022-02-26 15:12:19.025,0.61156774,0.271577,0.3303686,0.95503414,0.6079981,-0.05967486,-0.06520955,0.9335204,0.5512615,-0.19920237,0.19092947,1.4492679,0.49885917,0.17480813,0.20283139,1.1027277,0.28540495,0.33688524,0.3376693,0.8840472,736.55676,840.10986,833.2601,853.00366,941.2454,-0.06317138671875,0.169189453125,0.99884033203125,-6.945953369140625,14.318084716796875,-12.2021484375,1,1.0,1.0,1.0,1.0,77.02
2022-02-26 15:12:20.045,1.1231577,0.055471927,0.23693052,1.035149,1.0535758,-0.23274621,-0.036401223,0.79869276,1.0765474,-0.29347903,0.20972046,1.4614439,1.2642282,0.1408977,0.42581835,1.2894917,1.4322857,0.3374807,0.34319407,0.9779066,888.0586,910.6227,849.3773,854.21246,925.5311,-0.18597412109375,0.2308349609375,0.9715576171875,-5.15899658203125,-10.78155517578125,9.88433837890625,1,1.0,1.0,1.0,1.0,77.02
2022-02-26 15:12:21.079,1.1231577,0.9055911,0.5080673,1.1034724,1.0535758,-0.11251623,-0.34934768,0.8271541,1.0765474,0.11004137,0.0062405467,1.1904992,1.2642282,0.30046624,0.5491061,0.91018444,1.4322857,0.42061442,0.4360893,1.0137607,832.8571,856.63007,847.76556,833.663,924.3223,-0.15032958984375,0.24444580078125,0.95501708984375,-1.92901611328125,7.88055419921875,-1.906585693359375,1,1.0,1.0,1.0,1.0,77.02
2022-02-26 15:12:22.090,1.1231577,0.7576078,0.35766983,1.283241,1.0535758,-0.34922078,-0.24318184,1.129656,1.0765474,0.12348158,-0.034604944,1.1796176,1.2642282,0.365177,0.5684353,0.9933539,1.4322857,0.4226758,0.57073796,1.0388119,883.22345,869.12085,877.5824,864.2857,685.38464,-0.0745849609375,0.3341064453125,0.9918212890625,-2.415008544921875,-1.6448974609375,-4.418792724609375,1,1.0,1.0,1.0,1.0,77.02
2022-02-26 15:12:23.094,1.1231577,0.56658745,0.041071475,1.6363757,1.0535758,-0.48617002,-0.30006358,1.7854102,1.0765474,-0.6100448,-0.49021652,1.8058127,1.2642282,0.27063325,0.43783876,1.4897369,1.4322857,0.50152683,0.54978424,1.032258,857.4359,859.45056,873.5531,846.55676,903.36993,-0.13116455078125,0.289794921875,0.968505859375,3.03558349609375,7.34222412109375,6.71417236328125,1,1.0,1.0,1.0,1.0,77.02
2022-02-26 15:12:24.109,1.1231577,0.45133755,0.35931852,1.774057,1.0535758,-0.6964442,-0.3630676,1.5472113,1.0765474,-0.31105867,-0.20007156,1.2551678,1.2642282,0.22777289,0.45241532,1.0737473,1.4322857,0.25321597,0.47493634,1.1568779,794.9817,858.6447,839.304,817.9487,822.7839,-0.0667724609375,0.3004150390625,0.95281982421875,0.2691650390625,5.166473388671875,4.53094482421875,1,1.0,1.0,1.0,1.0,76.91
2022-02-26 15:12:25.130,1.1231577,0.70203257,0.6056897,1.774057,1.0535758,-0.1867042,-0.32513264,1.5472113,1.0765474,0.1514323,-0.1043883,1.2551678,1.2642282,0.09049802,0.13013928,1.0737473,1.4322857,0.05361546,0.08035501,1.1568779,914.65204,873.95605,819.5604,797.8022,807.47253,-7.9345703125E-4,0.26708984375,0.88348388671875,-18.4527587890625,6.332855224609375,16.441497802734375,1,1.0,1.0,1.0,1.0,76.91
2022-02-26 15:12:25.210,,,,,,,,,,,,,,,,,,,,,,,,,,,,,,,,,,,,,,/muse/elements/blink
2022-02-26 15:12:26.136,1.1231577,0.7890529,0.8416729,1.774057,1.0535758,-0.08489306,-0.1839862,1.5472113,1.0765474,0.08691382,-0.20617773,1.2551678,1.2642282,-0.10860051,-0.41705438,1.0737473,1.4322857,-0.06999775,-0.35578704,1.1568779,914.65204,855.42126,873.1502,789.34064,766.77655,-0.07867431640625,0.251953125,0.962158203125,-2.429962158203125,1.188812255859375,1.6748046875,1,1.0,1.0,1.0,1.0,76.91
2022-02-26 15:12:26.406,,,,,,,,,,,,,,,,,,,,,,,,,,,,,,,,,,,,,,/muse/elements/blink
2022-02-26 15:12:26.674,,,,,,,,,,,,,,,,,,,,,,,,,,,,,,,,,,,,,,/muse/elements/blink
2022-02-26 15:12:27.147,1.1231577,0.8797186,0.6977239,1.6977899,1.0535758,0.3233404,-0.14209032,1.621465,1.0765474,0.34415615,-0.35572898,1.3558258,1.2642282,0.068927586,-0.4170705,1.2543021,1.4322857,-0.0030676113,-0.36360112,0.95414054,905.78754,865.4945,853.00366,880.40295,1470.2931,-0.09722900390625,0.27410888671875,0.99322509765625,-11.312408447265625,17.084503173828125,65.855712890625,1,1.0,1.0,1.0,1.0,76.91
2022-02-26 15:12:28.164,1.1231577,0.9865998,0.6977239,1.6977899,1.0535758,0.44969732,-0.14209032,1.621465,1.0765474,0.35110426,-0.35572898,1.3558258,1.2642282,0.29677585,-0.4170705,1.2543021,1.4322857,0.19585171,-0.36360112,0.95414054,798.60803,867.1062,928.7546,766.77655,585.05493,-0.10296630859375,0.22906494140625,1.01129150390625,-11.6339111328125,12.508697509765625,-25.8697509765625,1,1.0,1.0,1.0,1.0,76.91
2022-02-26 15:12:28.168,,,,,,,,,,,,,,,,,,,,,,,,,,,,,,,,,,,,,,/muse/elements/jaw_clench
2022-02-26 15:12:28.375,,,,,,,,,,,,,,,,,,,,,,,,,,,,,,,,,,,,,,/muse/elements/jaw_clench
2022-02-26 15:12:29.171,1.1231577,0.66267717,0.6977239,1.6977899,1.0535758,0.16612746,-0.14209032,1.621465,1.0765474,0.22126873,-0.35572898,1.3558258,1.2642282,0.5634236,-0.4170705,1.2543021,1.4322857,0.39119834,-0.36360112,0.95414054,939.2308,848.5714,822.7839,810.293,926.7399,-0.12890625,0.24468994140625,0.97088623046875,-6.280517578125,1.00189208984375,0.418701171875,1,2.0,1.0,1.0,2.0,76.91
2022-02-26 15:12:29.543,,,,,,,,,,,,,,,,,,,,,,,,,,,,,,,,,,,,,,/muse/elements/blink
2022-02-26 15:12:30.190,1.1231577,0.31290445,0.6977239,1.6977899,1.0535758,-0.21452335,-0.14209032,1.621465,1.0765474,0.18241158,-0.35572898,1.3558258,1.2642282,0.5645941,-0.4170705,1.2543021,1.4322857,0.46626216,-0.36360112,0.95414054,900.14655,839.304,826.4103,786.1172,737.3626,-0.08343505859375,0.2125244140625,0.97235107421875,-2.160797119140625,3.058013916015625,3.237457275390625,1,2.0,1.0,1.0,2.0,76.91
2022-02-26 15:12:31.202,1.1231577,0.5613884,0.6977239,1.6977899,1.0535758,-0.30360314,-0.14209032,1.621465,1.0765474,0.14983717,-0.35572898,1.3558258,1.2642282,0.40381807,-0.4170705,1.2543021,1.4322857,0.36030334,-0.36360112,0.95414054,857.8388,854.21246,847.3626,856.2271,660.80585,-0.14349365234375,0.27252197265625,0.9647216796875,0.657958984375,1.487884521484375,1.71966552734375,1,2.0,1.0,1.0,2.0,76.91
2022-02-26 15:12:32.224,1.1231577,0.47429046,0.6977239,1.6977899,1.0535758,-0.18796724,-0.14209032,1.621465,1.0765474,0.021339936,-0.35572898,1.3558258,1.2642282,0.14116868,-0.4170705,1.2543021,1.4322857,0.24960577,-0.36360112,0.95414054,874.35895,855.42126,811.50183,898.93774,1003.2967,-0.220947265625,0.248779296875,0.96441650390625,-1.502838134765625,3.39447021484375,7.9254150390625,1,2.0,1.0,1.0,2.0,76.91
2022-02-26 15:12:33.244,1.1231577,0.62125814,0.23912197,1.6977899,1.0535758,0.06580221,-0.11376012,1.621465,1.0765474,0.18700191,-0.104292795,1.3558258,1.2642282,0.09033281,0.45595223,1.2543021,1.4322857,0.13652305,0.7090636,0.95414054,832.8571,834.4689,811.9048,850.989,653.5531,-0.1484375,0.26654052734375,0.94580078125,-5.60760498046875,-3.506622314453125,0.97198486328125,1,2.0,1.0,1.0,2.0,76.91
2022-02-26 15:12:33.629,,,,,,,,,,,,,,,,,,,,,,,,,,,,,,,,,,,,,,/muse/elements/blink
2022-02-26 15:12:34.276,1.1231577,0.72383463,0.34766823,1.6977899,1.0535758,0.24382693,-0.21695128,1.621465,1.0765474,0.21624151,-0.21218166,1.3558258,1.2642282,0.15212886,0.3846583,1.2543021,1.4322857,0.119488366,0.7050563,0.95414054,746.2271,844.94507,832.0513,829.6337,736.1539,-0.14068603515625,0.25714111328125,0.9530029296875,-4.844970703125,2.370147705078125,-7.58148193359375,1,2.0,1.0,1.0,2.0,76.81
2022-02-26 15:12:35.290,0.23936054,0.90022117,0.47648513,1.6977899,0.31190163,-0.0013252163,-0.1180925,1.621465,0.62898725,0.14414126,-0.3674181,1.3558258,1.1572961,0.20255417,0.60157984,1.2543021,1.0148134,0.06925971,0.40468192,0.95414054,735.7509,852.6007,840.10986,728.0952,764.7619,-0.10382080078125,0.27154541015625,0.99005126953125,-0.8074951171875,-6.17584228515625,3.09539794921875,1,1.0,1.0,1.0,1.0,76.81
2022-02-26 15:12:35.733,,,,,,,,,,,,,,,,,,,,,,,,,,,,,,,,,,,,,,/muse/elements/blink
2022-02-26 15:12:36.295,0.24450159,1.0953695,0.5084781,1.6977899,0.43933916,-0.25374678,0.060203914,1.621465,0.6546891,0.0010560646,-0.10551823,1.3558258,1.14247,0.17876989,0.63013434,1.2543021,1.058525,-0.18528286,0.58098906,0.95414054,862.674,849.3773,848.1685,844.5421,839.304,-0.0479736328125,0.306396484375,0.9482421875,-8.874969482421875,-3.611297607421875,0.13458251953125,1,1.0,1.0,1.0,1.0,76.81
2022-02-26 15:12:37.320,0.72623605,-0.19103065,0.5995934,1.6977899,0.8560741,-0.66676325,-0.056433048,1.621465,0.71219426,-0.055136137,-0.06365771,1.3558258,0.92346954,0.3771411,0.6884763,1.2543021,1.3667789,0.28989154,0.7062284,0.95414054,782.8938,850.989,845.7509,825.2015,631.39197,-0.028076171875,0.26055908203125,0.99786376953125,-6.482391357421875,-1.562652587890625,-14.19097900390625,1,1.0,1.0,1.0,1.0,76.81
2022-02-26 15:12:38.270,,,,,,,,,,,,,,,,,,,,,,,,,,,,,,,,,,,,,,/muse/elements/blink
2022-02-26 15:12:38.333,0.8283724,-0.07899093,0.4564376,1.6977899,0.7449674,-0.65722996,-0.35785574,1.621465,0.8823985,-0.11665975,0.028136607,1.3558258,0.89765424,0.22566047,0.6291417,1.2543021,1.3022116,0.19389704,0.40350497,0.95414054,884.0293,858.24176,850.989,848.97437,1112.8938,-0.1702880859375,0.2666015625,0.96795654296875,-5.03936767578125,6.826324462890625,4.299163818359375,1,1.0,1.0,1.0,1.0,76.81
2022-02-26 15:12:39.335,1.0086684,0.24285345,0.14112872,1.6977899,0.6405522,-0.24069801,-0.11059144,1.621465,0.84561735,0.14600517,0.28729224,1.3558258,0.9747463,0.3837111,0.7653787,1.2543021,1.1408246,0.8013088,0.6512378,0.95414054,774.43225,838.9011,852.1978,844.1392,843.73627,-0.22076416015625,0.22650146484375,0.9598388671875,0.665435791015625,8.74786376953125,-2.878570556640625,1,1.0,1.0,1.0,1.0,76.81
2022-02-26 15:12:40.341,0.6908972,0.42443252,0.23073599,1.6977899,0.60435236,0.039433744,-0.06458974,1.621465,0.68088174,0.20571283,0.18840387,1.3558258,1.0444688,0.29237133,0.6827524,1.2543021,0.8690989,0.7545101,0.5873304,0.95414054,799.81683,848.1685,847.3626,840.5128,728.9011,-0.1124267578125,0.27130126953125,0.96478271484375,12.389068603515625,-6.74407958984375,16.665802001953125,1,1.0,1.0,1.0,1.0,76.81
2022-02-26 15:12:40.545,,,,,,,,,,,,,,,,,,,,,,,,,,,,,,,,,,,,,,/muse/elements/blink
2022-02-26 15:12:41.344,0.6908972,0.17827183,0.40587726,1.6977899,0.60435236,-0.17678581,0.025542688,1.621465,0.68088174,0.3724842,0.3712248,1.3558258,1.0444688,0.2964349,0.64034665,1.2543021,0.8690989,0.300798,0.60744107,0.95414054,944.0659,849.7802,840.9158,864.2857,930.7692,-0.15985107421875,0.22821044921875,0.95477294921875,-7.5665283203125,4.628143310546875,-7.25250244140625,1,1.0,1.0,1.0,1.0,76.81
2022-02-26 15:12:42.336,,,,,,,,,,,,,,,,,,,,,,,,,,,,,,,,,,,,,,/muse/elements/blink
2022-02-26 15:12:42.365,0.6908972,-0.05073719,0.3578604,1.6977899,0.60435236,-0.2957872,-0.06332884,1.621465,0.68088174,0.14179012,0.17468287,1.3558258,1.0444688,0.45840752,0.60552657,1.2543021,0.8690989,0.5516651,0.664173,0.95414054,958.5714,863.8828,840.10986,875.16486,876.3736,-0.16595458984375,0.21624755859375,0.96630859375,-0.19439697265625,2.654266357421875,18.086395263671875,1,1.0,1.0,1.0,1.0,76.81
2022-02-26 15:12:43.379,0.6908972,-0.1080178,0.0870787,1.6977899,0.60435236,-0.201134,0.14806731,1.621465,0.68088174,-0.07939228,-0.013411785,1.3558258,1.0444688,0.5988697,0.6293903,1.2543021,0.8690989,0.67396325,0.5312174,0.95414054,906.99634,854.21246,844.5421,847.76556,880.0,-0.10601806640625,0.2125244140625,0.98175048828125,1.577606201171875,-3.925323486328125,4.179534912109375,1,2.0,1.0,1.0,2.0,76.81
2022-02-26 15:12:44.402,0.6908972,-0.019449672,0.11255108,0.9488763,0.60435236,-0.067484096,0.0032212192,1.1674297,0.68088174,-0.080075346,-0.10301178,1.3471502,1.0444688,0.7424084,0.62947565,1.1027174,0.8690989,0.6867693,0.5031208,0.8877733,825.6044,842.1245,832.4542,821.5751,857.4359,-0.1441650390625,0.193603515625,0.9742431640625,1.413116455078125,2.49725341796875,-1.21124267578125,1,1.0,1.0,1.0,1.0,76.67
2022-02-26 15:12:45.414,0.58773094,0.7141251,0.3763032,1.0447532,0.581803,-0.19101974,-0.23617549,1.2224686,0.6982595,-0.14167643,0.10370659,1.4912356,1.4698476,0.3765487,0.5586626,0.9647138,1.239486,0.5036219,0.41103938,1.0294602,904.17584,829.2308,847.76556,888.86444,893.2967,-0.130859375,0.2265625,0.992431640625,11.40960693359375,-0.471038818359375,14.534912109375,1,1.0,1.0,1.0,1.0,76.67
2022-02-26 15:12:46.432,0.87219715,0.46757588,0.23607177,0.90007794,0.58126664,-0.25370395,-0.23609774,0.9225598,0.6877203,-0.100516655,0.129846,0.9973804,1.3173317,0.18530872,0.49490318,0.77679443,1.2836362,0.13212225,0.28410062,1.0368251,863.8828,846.9597,829.6337,863.0769,931.1722,-0.13934326171875,0.23193359375,0.9658203125,-1.51031494140625,-7.125396728515625,5.794525146484375,1,1.0,1.0,1.0,1.0,76.67
2022-02-26 15:12:47.456,0.9302777,0.2765461,0.15294722,1.0915449,0.56782544,-0.5042011,-0.46493545,0.91518855,0.63389885,-0.24048686,-0.16515492,0.94483215,1.2414242,0.09983058,0.36052594,0.9506845,1.2886649,-0.027460622,0.23226663,1.1122023,883.22345,838.0952,835.6777,827.619,785.31134,-0.13665771484375,0.2489013671875,0.94146728515625,0.40374755859375,6.56463623046875,-0.22430419921875,1,1.0,1.0,1.0,1.0,76.67
2022-02-26 15:12:47.643,,,,,,,,,,,,,,,,,,,,,,,,,,,,,,,,,,,,,,/muse/elements/blink
2022-02-26 15:12:48.465,0.9302777,0.28967267,0.19455673,1.0915449,0.56782544,-7.386264E-5,-0.056067646,0.91518855,0.63389885,0.02696914,0.3126729,0.94483215,1.2414242,0.083391435,0.5738711,0.9506845,1.2886649,0.064591266,0.38593644,1.1122023,924.3223,847.3626,835.6777,845.7509,1044.3956,-0.18304443359375,0.3033447265625,0.9625244140625,-6.213226318359375,2.250518798828125,0.665435791015625,1,1.0,1.0,1.0,1.0,76.67
2022-02-26 15:12:49.484,0.9302777,0.42376763,0.42641068,1.0915449,0.56782544,0.2637039,0.027974116,0.91518855,0.63389885,0.02481468,0.17657283,0.94483215,1.2414242,0.18010627,0.61316997,0.9506845,1.2886649,0.17121333,0.49405852,1.1122023,863.8828,850.18317,857.8388,868.71796,677.72894,-0.12164306640625,0.2958984375,0.94110107421875,-7.3870849609375,-0.261688232421875,-2.9608154296875,1,2.0,1.0,1.0,2.0,76.67
2022-02-26 15:12:49.570,,,,,,,,,,,,,,,,,,,,,,,,,,,,,,,,,,,,,,/muse/elements/blink
2022-02-26 15:12:50.507,0.9302777,0.850458,0.059616253,1.0915449,0.56782544,0.24717632,-0.05710487,0.91518855,0.63389885,-6.104659E-4,0.14922696,0.94483215,1.2414242,0.33615384,0.702587,0.9506845,1.2886649,0.4923203,0.44998726,1.1122023,827.2161,854.61536,828.8278,844.94507,796.99634,-0.21185302734375,0.3199462890625,0.937255859375,-4.2767333984375,6.258087158203125,0.059814453125,1,2.0,1.0,1.0,2.0,76.67
2022-02-26 15:12:51.529,0.46728742,0.36276543,0.09073419,0.6905751,0.5649378,-0.15260518,-0.17222844,0.5620167,0.7968513,-0.107547134,0.026076235,0.79018337,1.2866251,0.4192572,0.5685653,0.8657649,1.3972957,0.45442626,0.5255521,0.65167075,784.10254,847.3626,853.4066,841.31866,873.1502,-0.13446044921875,0.25848388671875,0.96746826171875,0.0897216796875,-2.58697509765625,3.90289306640625,1,1.0,1.0,1.0,1.0,76.67
2022-02-26 15:12:52.086,,,,,,,,,,,,,,,,,,,,,,,,,,,,,,,,,,,,,,/muse/elements/blink
2022-02-26 15:12:52.551,0.2227041,0.47853762,0.45921487,0.41891608,0.53173614,0.10289756,-0.17397842,0.38709584,0.7968513,0.029192522,0.19864362,0.8127493,1.2040615,0.32365906,0.38610932,0.8533526,1.3973188,0.21652018,0.45469505,0.658091,802.23444,841.31866,850.58606,842.52747,755.09155,-0.10809326171875,0.2548828125,0.96240234375,2.22808837890625,7.29736328125,-1.83929443359375,1,1.0,1.0,1.0,1.0,76.67
2022-02-26 15:12:53.552,0.103577875,0.8567669,0.21725035,0.43179882,0.37700465,0.25971082,-0.08097184,0.8498841,0.6090229,0.0119528975,0.1974256,0.7518416,1.0437925,0.36304054,0.5154464,0.83998656,1.287061,0.36247435,0.49585855,0.4457282,757.9121,854.61536,849.3773,809.0842,760.7326,-0.10870361328125,0.26812744140625,0.9466552734375,-2.07855224609375,-7.6263427734375,-8.77777099609375,1,1.0,1.0,1.0,1.0,76.67
2022-02-26 15:12:54.588,0.8690847,0.8289619,0.110779636,0.5183258,1.0168407,0.17204379,-0.19380863,1.010269,0.6237519,0.008666575,-0.10881232,0.81049085,1.0097047,0.45643356,0.4924872,0.8725124,1.1282737,0.44522408,0.51592934,0.73327243,917.47253,869.92676,836.8865,892.0879,1032.3077,-0.1929931640625,0.251708984375,0.96697998046875,-6.80389404296875,6.676788330078125,1.562652587890625,1,1.0,1.0,1.0,1.0,76.59
2022-02-26 15:12:54.632,,,,,,,,,,,,,,,,,,,,,,,,,,,,,,,,,,,,,,/muse/elements/blink
2022-02-26 15:12:55.596,0.9202076,0.8702735,0.65149283,0.54516375,1.0478294,0.18736698,0.1040348,1.1427625,0.5350719,-0.07201684,0.09909775,0.66989577,1.0054264,0.6240936,0.42532966,0.8895362,1.2346697,0.5722215,0.59455824,0.88521445,886.4469,857.8388,855.0183,842.1245,909.011,-0.212646484375,0.18048095703125,0.9619140625,-0.755157470703125,3.45428466796875,3.865509033203125,1,1.0,1.0,1.0,1.0,76.59
2022-02-26 15:12:56.619,0.6374858,0.19458628,-0.36623776,0.8866313,0.5107376,-0.45011646,-0.4959349,1.1094558,0.42867002,-0.38337296,-0.025324551,1.4764514,1.0483168,0.4438188,0.480551,0.95965356,1.2583778,0.594941,0.5104384,0.7146752,776.04395,841.31866,831.2454,871.13556,810.293,-0.15753173828125,0.22747802734375,0.96429443359375,-4.5458984375,-1.98883056640625,3.641204833984375,1,1.0,1.0,1.0,1.0,76.59
2022-02-26 15:12:57.639,0.71742016,0.2465681,-0.05146614,0.88820785,0.38602936,-0.262882,-0.307188,0.47300968,0.7443975,-0.15622666,0.12204157,0.79812443,1.1649445,0.41616818,0.59818095,0.8434711,1.1860237,0.32887775,0.58905804,0.6760602,870.32965,848.1685,846.55676,841.31866,767.98535,-0.18414306640625,0.25762939453125,0.94866943359375,-1.084136962890625,1.80938720703125,-0.411224365234375,1,1.0,1.0,1.0,1.0,76.59
2022-02-26 15:12:58.643,0.8861859,0.2961462,0.017531052,0.7298439,0.5401889,-0.049412597,-0.45693147,0.75979304,0.8979188,0.11788893,0.06136125,1.0759859,1.2926033,0.5235652,0.46117002,0.81528205,1.2614299,0.32619172,0.61388755,0.99914265,815.5311,842.52747,853.00366,780.87915,649.92676,-0.13006591796875,0.2166748046875,0.9066162109375,-6.10107421875,2.16827392578125,2.429962158203125,1,1.0,1.0,1.0,1.0,76.59
2022-02-26 15:12:58.782,,,,,,,,,,,,,,,,,,,,,,,,,,,,,,,,,,,,,,/muse/elements/blink
2022-02-26 15:12:59.662,1.0182909,0.36145484,0.50003755,0.58442783,0.649291,-0.067464404,0.08328428,0.6329538,0.79131275,0.2330545,0.31198922,0.9471996,1.3163699,0.36614656,0.6370363,0.878051,1.4110032,0.3603584,0.5616397,1.1287822,882.01465,863.8828,829.2308,848.97437,867.9121,-0.15313720703125,0.2484130859375,0.9534912109375,4.418792724609375,10.40771484375,0.59814453125,1,1.0,1.0,1.0,1.0,76.59
2022-02-26 15:13:00.683,1.0182909,0.80263335,0.53941995,0.54458725,0.649291,0.03456783,0.09054242,0.65965587,0.79131275,0.29704803,0.29649797,0.87301284,1.3163699,0.36995926,0.5475623,0.8649241,1.4110032,0.30950412,0.40196368,1.1200229,898.93774,849.7802,854.61536,861.06226,902.96704,-0.2213134765625,0.2410888671875,0.9283447265625,-0.949554443359375,3.058013916015625,1.682281494140625,1,1.0,1.0,1.0,1.0,76.59
2022-02-26 15:13:01.223,,,,,,,,,,,,,,,,,,,,,,,,,,,,,,,,,,,,,,/muse/elements/blink
2022-02-26 15:13:01.706,1.0182909,1.0459691,0.33384067,0.54458725,0.649291,0.32082656,-0.16096745,0.65965587,0.79131275,0.31467772,-0.114415206,0.87301284,1.3163699,0.41774863,0.41769272,0.8649241,1.4110032,0.22262911,0.43764165,1.1200229,801.02563,855.0183,846.9597,823.5897,860.2564,-0.1693115234375,0.261474609375,0.96295166015625,-3.54400634765625,-6.871185302734375,-0.73272705078125,1,2.0,1.0,1.0,2.0,76.59
2022-02-26 15:13:02.726,1.0182909,0.7104349,0.10068479,0.54458725,0.649291,0.20194116,-0.18983084,0.65965587,0.79131275,0.29756936,-0.08103488,0.87301284,1.3163699,0.17968047,0.53102887,0.8649241,1.4110032,0.3183638,0.38405013,1.1200229,818.7546,849.3773,834.4689,851.39197,815.9341,-0.16839599609375,0.23785400390625,0.9405517578125,-1.375732421875,0.844879150390625,-3.820648193359375,1,2.0,1.0,1.0,2.0,76.59
2022-02-26 15:13:02.764,,,,,,,,,,,,,,,,,,,,,,,,,,,,,,,,,,,,,,/muse/elements/blink
2022-02-26 15:13:03.752,1.0182909,0.9486742,0.07472782,0.54458725,0.649291,0.36920258,-0.15452223,0.65965587,0.79131275,0.22496502,-0.15168677,0.87301284,1.3163699,0.2881457,0.6104227,0.8649241,1.4110032,0.23396237,0.39655995,1.1200229,788.1319,861.4652,825.6044,831.2454,799.81683,-0.19061279296875,0.22540283203125,0.9639892578125,-0.710296630859375,4.486083984375,0.94207763671875,1,2.0,1.0,1.0,2.0,76.45
2022-02-26 15:13:04.772,1.0182909,1.0581615,0.07682142,0.54458725,0.649291,0.4447057,-0.23617487,0.65965587,0.79131275,0.19260965,0.1263919,0.87301284,1.3163699,0.53871894,0.60906684,0.8649241,1.4110032,0.37117583,0.4677362,1.1200229,786.1172,851.39197,834.0659,846.55676,918.68134,-0.14654541015625,0.26849365234375,0.9493408203125,-3.48419189453125,-1.39068603515625,0.785064697265625,1,2.0,1.0,1.0,2.0,76.45
2022-02-26 15:13:05.794,0.618786,0.15754186,0.049843643,1.2977327,0.49064627,-0.4041949,-0.36214975,1.3133044,0.5314559,0.04181836,0.08970383,1.8286086,1.1245716,0.38840255,0.5733015,1.004491,1.3331388,0.26714486,0.42138264,0.9792664,882.8205,831.6484,844.1392,837.28937,803.44324,-0.15667724609375,0.25445556640625,0.95513916015625,3.207550048828125,6.47491455078125,1.278533935546875,1,1.0,1.0,1.0,1.0,76.45
2022-02-26 15:13:06.182,,,,,,,,,,,,,,,,,,,,,,,,,,,,,,,,,,,,,,/muse/elements/blink
2022-02-26 15:13:06.834,0.618786,0.5764072,0.529213,0.8952544,0.49064627,-0.046180345,-0.30829456,0.42341405,0.5314559,-0.23560229,-0.033626165,0.856002,1.1245716,0.5065503,0.5766715,0.9559553,1.3331388,0.48485452,0.59469515,1.0069925,918.2784,841.7216,853.8095,849.7802,916.26373,-0.098876953125,0.2642822265625,0.9786376953125,-4.613189697265625,-6.878662109375,1.428070068359375,1,1.0,1.0,1.0,1.0,76.45
2022-02-26 15:13:07.854,0.618786,0.605436,0.5483993,0.8952544,0.49064627,0.033234634,-0.24152704,0.42341405,0.5314559,0.059024133,0.026779827,0.856002,1.1245716,0.5101778,0.6552884,0.9559553,1.3331388,0.4002542,0.4499624,1.0069925,861.8681,861.8681,836.8865,806.6667,844.94507,-0.1717529296875,0.247802734375,0.9425048828125,-0.25421142578125,10.7366943359375,2.6318359375,1,1.0,1.0,1.0,1.0,76.45
2022-02-26 15:13:08.043,,,,,,,,,,,,,,,,,,,,,,,,,,,,,,,,,,,,,,/muse/elements/blink
2022-02-26 15:13:08.860,0.618786,0.67246306,0.50100046,0.8952544,0.49064627,0.15551576,-0.24388343,0.42341405,0.5314559,0.1793353,0.09070918,0.856002,1.1245716,0.65780467,0.694111,0.9559553,1.3331388,0.3599702,0.62537897,1.0069925,887.6557,841.31866,847.76556,832.8571,1011.75824,-0.156005859375,0.26092529296875,0.95172119140625,7.04315185546875,4.972076416015625,1.27105712890625,1,2.0,1.0,1.0,2.0,76.45
2022-02-26 15:13:09.285,,,,,,,,,,,,,,,,,,,,,,,,,,,,,,,,,,,,,,/muse/elements/blink
2022-02-26 15:13:09.903,0.618786,0.7431718,0.45789957,0.8952544,0.49064627,0.44687968,0.21129657,0.42341405,0.5314559,0.14207046,0.36552975,0.856002,1.1245716,0.6866752,0.81388086,0.9559553,1.3331388,0.29445264,0.7699569,1.0069925,812.3077,857.4359,840.9158,856.63007,704.3223,-0.09234619140625,0.26409912109375,0.96435546875,-5.375823974609375,2.093505859375,-3.431854248046875,1,2.0,1.0,1.0,2.0,76.45
2022-02-26 15:13:10.916,0.618786,0.7663328,0.5309561,0.8952544,0.49064627,0.24948674,0.015042937,0.42341405,0.5314559,0.14131464,0.33069772,0.856002,1.1245716,0.473322,0.77171373,0.9559553,1.3331388,0.44968718,0.6724782,1.0069925,809.0842,844.94507,842.52747,836.4835,936.0073,-0.14666748046875,0.2313232421875,0.96240234375,-11.3946533203125,8.2244873046875,-2.938385009765625,1,2.0,1.0,1.0,2.0,76.45
2022-02-26 15:13:11.946,0.618786,0.62086034,0.108269505,1.3024143,0.49064627,-0.20954786,-0.47043008,0.8429707,0.5314559,-0.1648496,-0.25627932,1.2040411,1.1245716,0.31849882,0.73080313,1.0755188,1.3331388,0.40065852,0.62175554,0.9084784,859.0476,854.61536,857.03296,798.60803,660.0,-0.12664794921875,0.24407958984375,0.9520263671875,-6.50482177734375,-7.932891845703125,-7.88055419921875,1,1.0,1.0,1.0,1.0,76.45
2022-02-26 15:13:12.563,,,,,,,,,,,,,,,,,,,,,,,,,,,,,,,,,,,,,,/muse/elements/blink
2022-02-26 15:13:12.966,1.1193092,0.7507835,0.2769292,1.2415255,0.78714764,0.045155298,-0.14260653,0.77968216,1.1315624,-0.13871779,-0.059420243,1.1333354,1.3795646,0.5315145,0.60969967,0.95064634,1.4290661,0.27450436,0.4232627,0.8726839,749.85345,862.674,833.2601,833.2601,813.5165,-0.07269287109375,0.24810791015625,0.96636962890625,0.964508056640625,3.087921142578125,2.85614013671875,1,1.0,1.0,1.0,1.0,76.45
2022-02-26 15:13:13.981,1.1193092,0.56763375,0.13588534,1.3349825,0.78714764,-0.08201928,-0.18606777,0.7674435,1.1315624,-0.11907907,-0.01337629,0.79497737,1.3795646,0.55445254,0.7878495,0.81827396,1.4290661,0.34095764,0.4252148,0.8983173,911.02563,843.3333,853.8095,848.1685,958.5714,-0.1282958984375,0.2496337890625,0.98095703125,2.579498291015625,-2.026214599609375,10.0189208984375,1,1.0,1.0,1.0,1.0,76.36
2022-02-26 15:13:15.003,1.077169,0.6175362,0.11488049,0.73350215,0.7288052,-0.08842182,-0.5104726,0.56756335,0.94292694,0.14405052,-0.20578273,0.7422983,1.2363116,0.4332674,0.67390525,0.9209002,1.3577379,0.42019716,0.63213867,0.94539195,917.8755,853.00366,845.34796,844.94507,1120.1465,-0.08148193359375,0.25042724609375,0.9844970703125,-1.3458251953125,-1.62994384765625,2.4822998046875,1,1.0,1.0,1.0,1.0,76.36
2022-02-26 15:13:16.013,1.450707,0.052739188,-0.088922225,1.0032736,0.8410319,0.015896093,-0.34695053,0.8161817,0.8194669,0.1814722,0.022720158,0.95448095,1.4037775,0.31358233,0.57545406,0.9284999,1.3508085,0.41864967,0.40784094,1.0175402,927.5458,838.49817,848.5714,849.7802,877.1795,-0.1292724609375,0.208740234375,0.94842529296875,-4.1571044921875,6.9384765625,-6.661834716796875,1,1.0,1.0,1.0,1.0,76.36
2022-02-26 15:13:17.017,1.450707,0.47681293,0.040056918,0.759756,0.8410319,-0.23602995,-0.29701883,0.72131544,0.8194669,0.017525103,-0.005806347,0.92881995,1.4037775,0.20047878,0.4274138,0.8660334,1.3508085,0.28612503,0.4009189,0.9511801,882.8205,850.58606,848.5714,834.87177,715.6044,-0.04827880859375,0.21832275390625,0.98114013671875,-2.0037841796875,-4.732818603515625,-0.650482177734375,1,1.0,1.0,1.0,1.0,76.36
2022-02-26 15:13:17.968,,,,,,,,,,,,,,,,,,,,,,,,,,,,,,,,,,,,,,/muse/elements/blink
2022-02-26 15:13:18.031,1.450707,0.87406015,-0.30968675,0.6003123,0.8410319,0.13657485,-0.54133475,0.7517488,0.8194669,0.28271875,-0.0037726995,0.7503379,1.4037775,0.1725784,0.37046444,0.8893097,1.3508085,0.3537956,0.37485358,0.9248697,786.9231,865.4945,840.5128,853.00366,752.674,-0.14898681640625,0.1807861328125,0.97607421875,-2.265472412109375,-2.474822998046875,0.874786376953125,1,1.0,1.0,1.0,1.0,76.36
2022-02-26 15:13:18.711,,,,,,,,,,,,,,,,,,,,,,,,,,,,,,,,,,,,,,/muse/elements/blink
2022-02-26 15:13:19.065,1.450707,0.6812819,0.2509609,0.4736907,0.8410319,0.122795604,-0.04562352,0.7557688,0.8194669,0.21508475,0.37267,0.7390296,1.4037775,0.054078218,0.28653425,0.9775392,1.3508085,0.36138546,0.23898439,0.8449036,853.00366,842.9304,840.5128,823.5897,825.2015,-0.05096435546875,0.26220703125,0.978515625,-4.94964599609375,0.97198486328125,-1.936492919921875,1,1.0,1.0,1.0,1.0,76.36
2022-02-26 15:13:20.067,1.450707,0.6812819,0.11709128,0.4736907,0.8410319,0.122795604,0.061039355,0.7557688,0.8194669,0.21508475,0.2434423,0.7390296,1.4037775,0.054078218,0.3886036,0.9775392,1.3508085,0.36138546,0.22161067,0.8449036,834.87177,848.97437,842.52747,836.8865,920.293,-0.08544921875,0.2889404296875,0.96044921875,0.478515625,11.940460205078125,-1.158905029296875,1,2.0,1.0,1.0,2.0,76.36
2022-02-26 15:13:20.734,,,,,,,,,,,,,,,,,,,,,,,,,,,,,,,,,,,,,,/muse/elements/jaw_clench
2022-02-26 15:13:20.976,,,,,,,,,,,,,,,,,,,,,,,,,,,,,,,,,,,,,,/muse/elements/jaw_clench
2022-02-26 15:13:21.077,1.0290128,0.094986506,-0.26227558,0.88044167,1.0667568,-0.3229211,-0.43166813,0.80842346,1.3387226,0.04596397,0.019994557,1.04144,1.2055669,0.23249066,0.46938303,1.0424117,1.3467567,0.24612565,0.42245114,0.7868224,841.7216,828.022,842.1245,852.1978,816.7399,-0.1717529296875,0.22930908203125,0.9583740234375,-2.190704345703125,-0.919647216796875,3.252410888671875,1,1.0,1.0,1.0,1.0,76.36
2022-02-26 15:13:22.104,1.0859514,-0.25417998,0.04281318,0.93348736,1.0099523,-0.21956465,-0.33260307,0.77592623,1.3609725,-0.059631504,0.12260702,1.0586671,1.2286385,0.23747204,0.87872016,1.0827483,1.4543203,0.33314422,0.83348227,0.9038147,822.381,852.6007,838.9011,842.9304,675.7143,-0.06915283203125,0.2520751953125,0.9508056640625,-0.1495361328125,-4.88983154296875,-4.329071044921875,1,1.0,1.0,1.0,1.0,76.36
2022-02-26 15:13:23.114,0.98159796,0.38306347,0.15052153,0.7848447,0.872881,-0.10278174,-0.26917496,0.7595198,1.0449264,0.13570386,-0.069513924,1.0607808,1.3216697,0.43988758,0.8095729,0.88181543,1.3114146,0.5346676,0.5026618,0.8649095,793.7729,846.9597,851.79486,833.663,902.5641,0.15069580078125,0.25152587890625,0.9674072265625,-3.401947021484375,14.228363037109375,-13.076934814453125,1,1.0,1.0,1.0,1.0,76.36
2022-02-26 15:13:24.139,1.0882072,0.37377068,0.7251429,1.4295834,0.82988626,-0.043997113,-0.021104183,0.7102262,1.0807911,0.031744383,-0.0026017923,1.1377407,1.2327243,0.29977274,0.6282183,1.0377893,1.048806,0.3971688,0.5738836,0.9517011,799.81683,842.9304,840.9158,861.8681,878.3883,-0.282958984375,0.27117919921875,0.9677734375,-1.562652587890625,6.945953369140625,-0.0299072265625,1,1.0,1.0,1.0,1.0,76.20
2022-02-26 15:13:25.169,1.0475618,0.73944205,0.5959829,1.5730691,0.86365294,0.18003368,0.06837363,0.7920326,1.0784371,0.29558197,0.48234108,0.95328313,1.2626173,0.47281387,0.43635103,1.2300533,1.1453041,0.46666965,0.30780762,1.0502993,748.6447,834.4689,816.7399,818.7546,748.6447,-0.178955078125,0.31365966796875,0.9481201171875,-11.267547607421875,1.55517578125,3.81317138671875,1,1.0,1.0,1.0,1.0,76.20
2022-02-26 15:13:25.508,,,,,,,,,,,,,,,,,,,,,,,,,,,,,,,,,,,,,,/muse/elements/blink
2022-02-26 15:13:26.196,1.0475618,0.64852345,0.7915524,1.3065457,0.86365294,0.26760587,0.23680721,0.5373239,1.0784371,0.26765233,0.6344336,0.88059545,1.2626173,0.43679214,0.57292616,1.295093,1.1453041,0.5025538,0.54383194,1.0094298,826.8132,840.9158,853.00366,829.2308,853.8095,-0.1317138671875,0.246826171875,0.952880859375,-3.222503662109375,12.807769775390625,-2.4822998046875,1,1.0,1.0,1.0,1.0,76.20
2022-02-26 15:13:26.297,,,,,,,,,,,,,,,,,,,,,,,,,,,,,,,,,,,,,,/muse/elements/blink
2022-02-26 15:13:27.215,1.0475618,0.679381,0.3318113,1.3065457,0.86365294,0.03273706,-0.28361332,0.5373239,1.0784371,0.37913823,0.28981817,0.88059545,1.2626173,0.50026464,0.6688045,1.295093,1.1453041,0.5657706,0.70421493,1.0094298,892.0879,839.304,842.9304,840.5128,967.4359,-0.10638427734375,0.23455810546875,0.96826171875,-0.52337646484375,-9.88433837890625,6.92352294921875,1,1.0,1.0,1.0,1.0,76.20
2022-02-26 15:13:28.239,1.0475618,0.7990588,0.36441487,0.9275582,0.86365294,-0.036518216,-0.29724234,0.841147,1.0784371,0.28502524,0.21519668,1.2917943,1.2626173,0.2183159,0.789974,1.1027468,1.1453041,0.26417255,0.59707505,1.0146496,881.2088,832.8571,851.79486,838.9011,914.2491,-0.0870361328125,0.21563720703125,0.95147705078125,-1.2860107421875,2.49725341796875,0.25421142578125,1,1.0,1.0,1.0,1.0,76.20
2022-02-26 15:13:29.257,1.0475618,0.25557402,0.47867638,0.91943544,0.86365294,-0.40720677,-0.3094608,0.6543755,1.0784371,0.028462213,0.21202846,1.1124024,1.2626173,0.3009877,0.7247017,1.0299428,1.1453041,0.1556216,0.46585965,0.85006946,916.6667,830.4396,859.0476,853.00366,990.0,-0.1201171875,0.28179931640625,0.95257568359375,10.564727783203125,2.43743896484375,10.4376220703125,1,1.0,1.0,1.0,1.0,76.20
2022-02-26 15:13:30.261,1.0475618,-0.12881169,-0.18531425,1.1018674,0.86365294,-0.25268513,-0.16911504,0.7270914,1.0784371,0.23805694,0.13062039,0.8917958,1.2626173,0.30062485,0.689261,1.0808446,1.1453041,0.26077807,0.537726,0.9174033,772.4176,854.61536,834.0659,846.55676,682.1612,-0.0606689453125,0.3271484375,0.939453125,-6.41510009765625,8.860015869140625,-17.039642333984375,1,1.0,1.0,1.0,1.0,76.20
2022-02-26 15:13:31.269,1.0662496,0.02961621,0.3090393,1.288287,0.8317948,-0.40487683,-0.19026162,0.87212056,0.9265736,0.06660119,0.03071387,1.0761132,1.2679919,0.37992623,0.5147147,1.1798843,1.4761012,0.2936622,0.41104588,0.91501516,766.77655,847.76556,827.619,844.1392,907.3993,-0.10302734375,0.272216796875,0.96826171875,-3.431854248046875,3.3795166015625,-5.263671875,1,1.0,1.0,1.0,1.0,76.20
2022-02-26 15:13:32.289,1.0662496,0.7565312,0.6523918,1.3247755,0.8317948,0.2617945,0.28234926,1.1006198,0.9265736,0.3404124,0.33569825,1.3849051,1.2679919,0.36865425,0.37316734,1.1151826,1.4761012,0.33808848,0.37556538,0.9167919,785.31134,851.39197,843.3333,844.94507,750.2564,-0.0921630859375,0.29278564453125,0.94476318359375,-7.110443115234375,-9.084320068359375,1.30096435546875,1,1.0,1.0,1.0,1.0,76.20
2022-02-26 15:13:33.316,1.0662496,0.8019257,0.5760281,1.435425,0.8317948,0.24325834,0.24956849,1.0810808,0.9265736,0.35701224,0.31912965,1.3807096,1.2679919,0.30726242,0.29266563,1.2161016,1.4761012,0.1802712,0.23254718,0.95940316,809.89014,847.3626,840.9158,877.98535,884.43225,-0.08404541015625,0.3013916015625,0.968017578125,-3.5888671875,2.88604736328125,6.4599609375,1,1.0,1.0,1.0,1.0,76.20
2022-02-26 15:13:34.323,0.5304583,0.030680366,0.19479646,0.8731441,0.17622179,-0.5090437,-0.24952385,0.6025645,0.72372544,0.19136684,0.27319825,0.96790075,1.2195348,0.35997424,0.32050395,1.0424503,1.4103323,0.30277583,0.2736413,0.9994233,902.5641,848.5714,857.03296,830.84247,882.01465,-0.0986328125,0.26763916015625,0.93939208984375,-3.57391357421875,-3.043060302734375,0.8074951171875,1,1.0,1.0,1.0,1.0,76.11
2022-02-26 15:13:35.328,-0.008439587,0.09630776,0.45523128,0.7836529,0.028388092,-0.36486292,-0.09794126,0.6650916,0.72690415,-5.3084793E-4,0.19687587,1.1631594,1.1234791,-0.00995184,0.32560384,0.850217,1.1898626,0.28390434,0.23569456,0.7760164,875.56775,863.47986,855.0183,855.82416,891.28204,-0.145751953125,0.26708984375,0.94683837890625,-3.21502685546875,1.428070068359375,-0.01495361328125,1,1.0,1.0,1.0,1.0,76.11
2022-02-26 15:13:35.775,,,,,,,,,,,,,,,,,,,,,,,,,,,,,,,,,,,,,,/muse/elements/blink
2022-02-26 15:13:36.342,-0.185258,0.2260068,0.08172832,0.44854838,0.06278326,-0.39562646,-0.13717085,0.7125787,0.6655195,-0.06727014,0.015992342,1.129244,1.021798,0.3256708,0.38697463,0.7572069,1.3205553,0.22888622,0.34866825,0.7679454,736.9597,846.55676,826.0073,746.63007,972.674,-0.09356689453125,0.27984619140625,0.952392578125,4.747772216796875,-5.899200439453125,11.67877197265625,1,1.0,1.0,1.0,1.0,76.11
2022-02-26 15:13:36.579,,,,,,,,,,,,,,,,,,,,,,,,,,,,,,,,,,,,,,/muse/elements/blink
2022-02-26 15:13:37.368,-0.23675631,0.32553783,0.10505737,0.6157742,0.03648734,-0.11274202,0.080165274,0.8051178,0.6149146,0.13223074,0.4337438,1.0147299,1.1057483,0.57414216,0.56216425,0.89154446,1.4274201,0.6105566,0.612577,0.8491896,813.1135,842.52747,830.0366,824.3956,808.68134,-0.16912841796875,0.27996826171875,0.97802734375,0.76263427734375,5.7720947265625,4.71038818359375,1,1.0,1.0,1.0,1.0,76.11
2022-02-26 15:13:38.392,-0.23675631,0.0025414727,0.39305496,0.9647375,0.03648734,-0.095851324,0.058836088,1.016674,0.6149146,0.29241428,0.4337438,0.92660975,1.1057483,0.5560807,0.7017766,1.130904,1.4274201,0.6697392,0.71423423,1.066172,784.90845,837.28937,855.42126,813.5165,965.0183,-0.15386962890625,0.2432861328125,0.96435546875,-2.459869384765625,4.762725830078125,-4.732818603515625,1,1.0,1.0,1.0,1.0,76.11
2022-02-26 15:13:39.209,,,,,,,,,,,,,,,,,,,,,,,,,,,,,,,,,,,,,,/muse/elements/blink
2022-02-26 15:13:39.410,1.0374899,-0.40296963,0.3619863,0.66082394,0.97594255,-0.43391395,-0.0699098,0.75639015,1.0581734,0.0037094704,0.04738868,1.102693,1.525094,0.3882794,0.57820797,1.0599368,1.5031087,0.46863365,0.5540117,1.0595015,905.38464,841.31866,855.0183,877.1795,938.4249,-0.10089111328125,0.2423095703125,0.956298828125,-1.07666015625,0.1495361328125,2.265472412109375,1,1.0,1.0,1.0,1.0,76.11
2022-02-26 15:13:40.438,1.0158238,-0.18587655,0.164812,0.4385792,0.7593153,-0.6216827,0.0659059,0.6752352,0.9524787,0.070941746,0.16763586,0.8990268,1.615912,0.43967634,0.7573399,0.8191252,1.3909994,0.3109224,0.5668902,1.0633603,892.0879,848.1685,834.4689,850.989,933.9927,-0.06719970703125,0.231689453125,0.93585205078125,-8.336639404296875,-16.979827880859375,7.559051513671875,1,1.0,1.0,1.0,1.0,76.11
2022-02-26 15:13:40.575,,,,,,,,,,,,,,,,,,,,,,,,,,,,,,,,,,,,,,/muse/elements/jaw_clench
2022-02-26 15:13:41.452,1.0158238,-0.24505383,0.3327242,1.2584897,0.7593153,-0.52474624,-0.27267176,1.345608,0.9524787,0.26468378,0.2599684,1.2344608,1.615912,0.4982289,0.77004814,1.1318088,1.3909994,0.59343255,0.63895005,1.237106,788.5348,846.9597,857.03296,782.49084,832.0513,-0.11090087890625,0.24334716796875,0.9583740234375,-4.478607177734375,1.951446533203125,17.757415771484375,1,1.0,1.0,1.0,1.0,76.11
2022-02-26 15:13:42.481,1.0158238,-0.47997946,0.10093001,0.8930006,0.7593153,-0.5772787,-0.45064026,0.6467601,0.9524787,-0.10849969,0.15371059,1.180459,1.615912,0.31462267,0.6144557,1.0397614,1.3909994,0.39898506,0.5816761,0.9973301,926.337,846.9597,835.6777,850.18317,934.3956,-0.1568603515625,0.23040771484375,0.9730224609375,-3.312225341796875,11.5740966796875,-1.009368896484375,1,1.0,1.0,1.0,1.0,76.11
2022-02-26 15:13:43.498,0.7308675,-0.3850046,0.2891589,0.60624623,0.69900656,-0.6979616,-0.50294363,0.44525638,1.0088977,-0.3108352,-0.15353964,0.8447112,1.1875904,0.34819818,0.4500103,0.7936127,1.5165669,0.15724601,0.3942461,0.970398,855.42126,856.2271,848.97437,840.9158,917.47253,-0.16546630859375,0.24761962890625,0.969482421875,-6.183319091796875,1.951446533203125,-1.024322509765625,1,1.0,1.0,1.0,1.0,75.95
2022-02-26 15:13:44.528,0.79451805,0.0019831557,-0.18661097,1.0008975,0.7069387,-0.4338489,-0.42316315,0.52759486,1.0280492,-0.047536477,-0.11416354,0.78732014,1.2641727,0.45164052,0.5167321,0.9290174,1.5009539,0.17552805,0.3638311,1.098305,786.52014,838.9011,850.58606,844.5421,817.9487,-0.1788330078125,0.23443603515625,0.99664306640625,4.964599609375,-6.3104248046875,4.269256591796875,1,1.0,1.0,1.0,1.0,75.95
2022-02-26 15:13:45.538,0.75407356,-0.17601568,-0.12223174,0.88138837,0.6071397,-0.39076415,-0.49013168,0.661478,0.8272421,-0.045571122,-0.18485983,0.8387197,1.235029,0.30657315,0.5098411,0.92249423,1.4305582,0.22746292,0.31714174,0.98013675,829.6337,831.6484,864.2857,857.03296,857.4359,-0.0233154296875,0.2275390625,0.96624755859375,1.8841552734375,0.70281982421875,-5.061798095703125,1,1.0,1.0,1.0,1.0,75.95
2022-02-26 15:13:46.544,1.0429034,-0.49056235,-0.13146393,0.9418839,0.9987666,-0.43880194,-0.51225007,0.79956776,1.0617601,-0.008535867,-0.076854356,0.9412285,1.5114595,0.3638516,0.57107985,0.93726635,1.5302728,0.36197713,0.35743666,0.9406116,786.1172,839.707,853.4066,863.0769,769.19415,-0.18170166015625,0.29815673828125,0.98089599609375,-4.44122314453125,10.564727783203125,-2.52716064453125,1,1.0,1.0,1.0,1.0,75.95
2022-02-26 15:13:47.120,,,,,,,,,,,,,,,,,,,,,,,,,,,,,,,,,,,,,,/muse/elements/blink
2022-02-26 15:13:47.552,0.64960134,0.19905984,0.15127994,0.8318245,0.4857531,-0.4201817,-0.08964407,0.62650555,0.5744637,0.042693228,0.091880955,0.98022616,1.4098842,0.43794036,0.5317993,0.9196778,1.5259143,0.49667445,0.33953425,0.8542538,882.01465,849.7802,829.2308,837.6923,519.7802,-0.11865234375,0.21063232421875,0.96185302734375,-5.929107666015625,-11.79840087890625,-28.21746826171875,1,1.0,1.0,1.0,1.0,75.95
2022-02-26 15:13:48.554,0.64960134,-0.10450194,0.09227043,1.0682918,0.4857531,-0.42430365,-0.06243067,0.669839,0.5744637,-0.057576526,0.14085363,0.8451148,1.4098842,0.50911087,0.57945985,0.9198087,1.5259143,0.6686764,0.3739946,0.8720095,900.54944,855.0183,850.989,834.4689,844.1392,-0.17510986328125,0.2314453125,0.96441650390625,-7.05810546875,9.45068359375,-9.667510986328125,1,1.0,1.0,1.0,1.0,75.95
2022-02-26 15:13:49.383,,,,,,,,,,,,,,,,,,,,,,,,,,,,,,,,,,,,,,/muse/elements/blink
2022-02-26 15:13:49.574,0.64960134,-0.04173304,0.02677734,0.94456285,0.4857531,-0.31610283,-0.41857344,1.4748908,0.5744637,0.12352588,0.12074901,1.7677847,1.4098842,0.49303368,0.6224257,1.1236479,1.5259143,0.5874002,0.5830539,1.1336555,927.1429,857.8388,852.6007,857.8388,855.0183,-0.1180419921875,0.2491455078125,0.94012451171875,-1.1065673828125,9.637603759765625,0.73272705078125,1,1.0,1.0,1.0,1.0,75.95
2022-02-26 15:13:50.592,0.64960134,0.033462502,0.081151284,0.75065124,0.4857531,0.023412475,-0.010007433,1.3279756,0.5744637,0.19722997,0.17988583,1.4285958,1.4098842,0.66290843,0.8386984,1.0657723,1.5259143,0.6428486,0.7790384,1.1401093,770.40295,846.1539,859.0476,862.674,731.7216,-0.07806396484375,0.27850341796875,0.96136474609375,-2.3626708984375,8.83758544921875,-2.803802490234375,1,1.0,1.0,1.0,1.0,75.95
2022-02-26 15:13:51.597,0.64960134,-0.21923108,-0.18370385,0.9830128,0.4857531,-0.40437812,-0.34641248,0.43515968,0.5744637,-0.068297654,0.007238397,0.7790464,1.4098842,0.74864227,0.7558017,1.0752566,1.5259143,0.6174891,0.5872841,0.86986774,821.978,857.4359,840.9158,814.3223,849.3773,-0.169921875,0.2484130859375,0.9588623046875,-0.680389404296875,1.203765869140625,4.3365478515625,1,1.0,1.0,1.0,1.0,75.95
2022-02-26 15:13:52.610,0.64960134,-0.0063564945,-0.36693192,0.87045395,0.4857531,-0.33704925,-0.42933527,0.36715958,0.5744637,-0.034572773,0.16801824,0.88465405,1.4098842,0.6413139,0.72712284,1.0317202,1.5259143,0.8250267,0.81486064,0.9447199,805.05493,860.2564,862.27106,824.7985,865.89746,-0.16143798828125,0.28131103515625,0.97857666015625,-2.115936279296875,0.695343017578125,-3.7384033203125,1,1.0,1.0,1.0,1.0,75.95
2022-02-26 15:13:53.632,0.64960134,-0.056333344,-0.36791784,1.035084,0.4857531,-0.43091303,-0.12718059,0.8754734,0.5744637,-0.3116092,0.07551016,1.0004,1.4098842,0.49003908,0.6724587,0.88755107,1.5259143,0.7249807,0.76722074,1.0028048,772.01465,845.34796,841.31866,826.0073,873.5531,-0.1966552734375,0.26446533203125,0.94525146484375,0.61309814453125,-2.385101318359375,4.29168701171875,1,1.0,1.0,1.0,1.0,75.88
2022-02-26 15:13:54.648,0.7855158,-0.13538764,0.19655098,1.0777171,0.63019145,-0.7028899,0.006389655,0.85301316,0.75505763,-0.3581046,0.16303487,0.9636038,1.312783,0.5319405,0.5767259,0.8538673,1.3115157,0.42419752,0.54876405,0.9085726,892.49084,832.0513,841.31866,835.2747,971.8681,-0.14849853515625,0.26898193359375,0.96136474609375,-2.04864501953125,10.16845703125,-1.622467041015625,1,1.0,1.0,1.0,1.0,75.88
2022-02-26 15:13:55.682,1.0744228,0.01791305,0.62028676,1.1083463,0.8722749,-0.06113963,0.049757786,0.9621388,1.0458276,0.24592842,0.17101635,0.8219359,1.3420823,0.7049213,0.5912064,0.9165089,1.2969327,0.56883425,0.4272677,0.9855234,867.9121,848.97437,843.3333,857.8388,931.1722,-0.1690673828125,0.234130859375,0.97637939453125,-1.652374267578125,-3.446807861328125,4.358978271484375,1,1.0,1.0,1.0,1.0,75.88
2022-02-26 15:13:56.695,1.1836612,0.31383952,0.5418343,0.97681206,0.9941425,0.1487291,0.16658686,0.6099021,1.0458276,0.36062038,0.28521684,0.87434816,1.347452,0.55218726,0.63418293,0.94744486,1.2828283,0.41193247,0.38136077,0.8950097,913.0403,841.7216,827.619,862.27106,999.67035,-0.11480712890625,0.2198486328125,0.96575927734375,-0.545806884765625,-0.964508056640625,2.818756103515625,1,1.0,1.0,1.0,1.0,75.88
2022-02-26 15:13:57.699,1.1836612,0.043720637,0.25106567,0.9482568,0.9941425,-0.03406168,-0.17607813,0.68717074,1.0458276,0.09243592,0.27707472,0.8697077,1.347452,0.4526315,0.60508066,0.8009415,1.2828283,0.2614363,0.3287686,0.84073013,891.28204,843.73627,850.18317,842.52747,958.5714,-0.14984130859375,0.206787109375,0.9774169921875,-2.684173583984375,1.128997802734375,-2.788848876953125,1,1.0,1.0,1.0,1.0,75.88
2022-02-26 15:13:58.703,1.1836612,0.23337677,0.20452683,0.9647098,0.9941425,0.017313628,-0.31400567,0.6112925,1.0458276,-0.0043954407,0.05090558,0.5266574,1.347452,0.23622982,0.5334214,0.79387647,1.2828283,0.23536965,0.6073014,0.73973143,899.34064,855.42126,850.58606,852.1978,859.0476,-0.15484619140625,0.2169189453125,0.9368896484375,2.88604736328125,3.252410888671875,2.280426025390625,1,1.0,1.0,1.0,1.0,75.88
2022-02-26 15:13:59.706,0.18881284,0.42362365,0.34604678,0.8819748,0.38645753,0.082568966,-0.032558903,0.4098741,0.9829466,0.09270287,0.28045055,0.554167,1.3404776,0.39425975,0.3893891,1.0026906,1.5486999,0.24416749,0.46026292,0.8508617,916.26373,840.9158,842.9304,836.08057,863.0769,-0.1446533203125,0.25286865234375,1.01434326171875,0.097198486328125,-3.9178466796875,2.609405517578125,1,1.0,1.0,1.0,1.0,75.88
2022-02-26 15:14:00.730,0.35975,0.3298343,0.60811806,1.0985662,0.7967962,-0.21841547,0.2641811,0.9534095,1.0086412,0.09381782,0.3195414,0.7033305,1.4074591,0.29366428,0.39345673,0.96482855,1.549231,0.3780758,0.46945256,0.9693665,920.696,857.03296,840.10986,856.63007,952.9304,-0.0755615234375,0.248779296875,0.94439697265625,0.351409912109375,4.366455078125,-4.433746337890625,1,1.0,1.0,1.0,1.0,75.88
2022-02-26 15:14:01.656,,,,,,,,,,,,,,,,,,,,,,,,,,,,,,,,,,,,,,/muse/elements/blink
2022-02-26 15:14:01.752,0.35975,-0.30594647,-0.032939263,1.1916555,0.7967962,-0.2988067,-0.15115942,0.7016644,1.0086412,-0.13561092,-0.06506823,0.6893472,1.4074591,0.43630084,0.46058983,0.89809555,1.549231,0.5359202,0.3855051,0.88857037,894.90845,839.304,838.9011,875.16486,817.9487,-0.18670654296875,0.32183837890625,0.93011474609375,-8.187103271484375,-0.91217041015625,-9.278717041015625,1,1.0,1.0,1.0,1.0,75.88
2022-02-26 15:14:02.773,0.35975,0.1410274,-0.10141168,1.2430248,0.7967962,0.13260253,-0.070621066,0.60613745,1.0086412,-0.1323332,0.018003887,0.5823114,1.4074591,0.6093787,0.61659276,0.92016727,1.549231,0.45507845,0.35351345,0.88170165,771.6117,848.97437,848.5714,911.02563,696.26373,-0.20513916015625,0.2869873046875,0.91302490234375,-5.001983642578125,13.7274169921875,-5.106658935546875,1,1.0,1.0,1.0,1.0,75.88
2022-02-26 15:14:03.792,0.35975,0.014697024,-0.24394277,1.2430248,0.7967962,-0.24526493,-0.18775155,0.60613745,1.0086412,0.30225122,0.04825916,0.5823114,1.4074591,0.63656,0.50461864,0.92016727,1.549231,0.643059,0.5725162,0.88170165,760.32965,840.9158,849.3773,853.8095,811.50183,-0.11773681640625,0.2823486328125,0.93109130859375,-3.1103515625,6.3702392578125,-4.702911376953125,1,1.0,1.0,1.0,1.0,75.73
2022-02-26 15:14:04.819,0.35975,-0.36879063,0.15991373,0.9923195,0.7967962,-0.31660023,-0.088133596,0.8636425,1.0086412,0.16729452,0.25164402,1.0514543,1.4074591,0.7637968,0.758378,1.2993658,1.549231,0.6614131,0.76946104,1.1047859,821.1722,862.27106,835.2747,853.4066,862.674,-0.05194091796875,0.31304931640625,0.909912109375,2.758941650390625,18.0938720703125,2.13836669921875,1,1.0,1.0,1.0,1.0,75.73
2022-02-26 15:14:05.837,0.35975,-0.27443236,0.5737307,1.1370815,0.7967962,-0.39187825,-0.13087955,0.8345829,1.0086412,0.12367578,0.20937212,1.0414352,1.4074591,0.70579785,0.8863165,1.413847,1.549231,0.67526954,0.76660967,1.2235308,887.6557,843.73627,830.4396,820.7692,985.56775,-0.04229736328125,0.28564453125,0.96624755859375,-6.437530517578125,8.71795654296875,-3.84307861328125,1,1.0,1.0,1.0,1.0,75.73
2022-02-26 15:14:06.842,0.5860912,-0.2866199,0.4624685,1.1086339,0.3824904,-0.34988353,-0.36109316,1.0346119,0.7198326,0.123827554,-0.119497925,1.335687,1.2400714,0.6859837,0.656198,1.073628,1.3403754,0.45108345,0.49713215,0.930302,860.2564,851.79486,841.31866,848.1685,773.6264,-0.237548828125,0.19873046875,0.9287109375,-9.861907958984375,5.061798095703125,-2.669219970703125,1,1.0,1.0,1.0,1.0,75.73
2022-02-26 15:14:06.946,,,,,,,,,,,,,,,,,,,,,,,,,,,,,,,,,,,,,,/muse/elements/blink
2022-02-26 15:14:07.861,0.70191354,-0.041879367,0.080451615,1.1431675,0.35392863,-0.099317536,-0.31365904,0.9767871,0.5500567,-0.015825225,-0.032400955,1.3270397,1.301787,0.45851597,0.6691699,1.0407256,1.2175978,0.39961737,0.5845178,0.74703103,940.84247,850.18317,851.79486,815.12823,882.4176,-0.11090087890625,0.1632080078125,0.9703369140625,-3.043060302734375,1.203765869140625,2.056121826171875,1,1.0,1.0,1.0,1.0,75.73
2022-02-26 15:14:08.891,0.70191354,-0.1984362,-0.2173254,1.1431675,0.35392863,-0.38014466,-0.36120158,0.9767871,0.5500567,0.045960926,-0.023838967,1.3270397,1.301787,0.60613424,0.56561625,1.0407256,1.2175978,0.5142801,0.60046,0.74703103,873.95605,850.58606,858.6447,854.21246,880.40295,-0.18548583984375,0.1741943359375,0.97674560546875,-1.891632080078125,5.091705322265625,0.949554443359375,1,1.0,1.0,1.0,1.0,75.73
2022-02-26 15:14:09.910,0.5039117,-0.6847,-0.15764017,1.1431675,0.75027555,-0.58422667,-0.25804636,0.9767871,1.1395351,0.0113980165,-0.096655846,1.3270397,1.3068706,0.52126557,0.7334124,1.0407256,1.6390043,0.4986592,0.6247459,0.74703103,857.03296,841.31866,855.82416,861.4652,731.7216,-0.16912841796875,0.21234130859375,0.94793701171875,-10.489959716796875,-6.841278076171875,9.144134521484375,1,1.0,1.0,1.0,1.0,75.73
2022-02-26 15:14:10.942,0.9523401,-0.18110733,-0.15833332,1.1431675,0.95397866,-0.53171647,-0.232523,0.9767871,1.2017006,-0.068143725,-0.035727963,1.3270397,1.3123299,0.51169336,0.7203777,1.0407256,1.5373745,0.5703142,0.5845875,0.74703103,840.9158,857.4359,841.7216,856.2271,828.8278,-0.13787841796875,0.21575927734375,0.9691162109375,1.27105712890625,0.306549072265625,-0.889739990234375,1,1.0,1.0,1.0,1.0,75.73
2022-02-26 15:14:11.179,,,,,,,,,,,,,,,,,,,,,,,,,,,,,,,,,,,,,,/muse/elements/blink
2022-02-26 15:14:11.380,,,,,,,,,,,,,,,,,,,,,,,,,,,,,,,,,,,,,,/muse/elements/blink
2022-02-26 15:14:11.946,1.1705576,0.31006023,0.19401477,1.1431675,1.0724124,-0.079035744,-0.17659561,0.9767871,0.82530093,-0.26257482,0.19032681,1.3270397,1.2884368,0.44749928,0.5650053,1.0407256,1.3535199,0.61823463,0.5981974,0.74703103,755.89746,835.2747,853.4066,850.58606,820.3663,-0.0845947265625,0.25048828125,0.95281982421875,-7.588958740234375,-1.854248046875,-2.452392578125,1,1.0,1.0,1.0,1.0,75.73
2022-02-26 15:14:12.355,,,,,,,,,,,,,,,,,,,,,,,,,,,,,,,,,,,,,,/muse/elements/blink
2022-02-26 15:14:12.963,1.1705576,0.08357072,0.65363604,1.1431675,1.0724124,-0.119043574,0.029587682,0.9767871,0.82530093,-0.07876249,0.18254118,1.3270397,1.2884368,0.48483372,0.5795025,1.0407256,1.3535199,0.6362026,0.7300034,0.74703103,708.3516,845.7509,840.10986,824.3956,663.6264,-0.13568115234375,0.28668212890625,0.91973876953125,-3.207550048828125,5.18890380859375,-4.18701171875,1,2.0,1.0,1.0,2.0,75.73
2022-02-26 15:14:13.987,1.1705576,-0.13054664,-0.16136964,1.1431675,1.0724124,-0.25561833,-0.42495272,0.9767871,0.82530093,-0.061549556,-0.016238926,1.3270397,1.2884368,0.46249884,0.7395183,1.0407256,1.3535199,0.5548116,0.8120936,0.74703103,765.16486,853.4066,838.9011,850.58606,817.9487,-0.05963134765625,0.29638671875,0.91766357421875,8.50860595703125,13.166656494140625,-3.656158447265625,1,2.0,1.0,1.0,2.0,75.66
2022-02-26 15:14:15.000,1.1705576,-0.4114788,-0.07921857,1.1431675,1.0724124,-0.40224746,-0.49653992,0.9767871,0.82530093,-0.25150955,-0.033287436,1.3270397,1.2884368,0.7098586,0.6155899,1.0407256,1.3535199,0.53622496,0.7704335,0.74703103,815.9341,858.6447,840.5128,832.0513,844.1392,-0.16534423828125,0.2965087890625,0.9190673828125,0.8074951171875,8.4637451171875,-6.50482177734375,1,2.0,1.0,1.0,2.0,75.66
2022-02-26 15:14:16.021,1.1705576,-0.20547858,0.11990863,1.1431675,1.0724124,-0.37684587,-0.23530339,0.9767871,0.82530093,-0.16943267,-0.15544403,1.3270397,1.2884368,0.61669886,0.4837427,1.0407256,1.3535199,0.3438985,0.60362035,0.74703103,844.1392,840.9158,847.3626,837.6923,818.7546,-0.20135498046875,0.22967529296875,0.94219970703125,5.00946044921875,-0.52337646484375,0.8673095703125,1,2.0,1.0,1.0,2.0,75.66
2022-02-26 15:14:17.023,1.1705576,-0.24672452,0.1613921,1.1431675,1.0724124,-0.35859597,-0.21308653,0.9767871,0.82530093,-0.26898313,-0.07650185,1.3270397,1.2884368,0.47204092,0.53282565,1.0407256,1.3535199,0.50489527,0.53514427,0.74703103,918.2784,839.707,852.6007,883.22345,929.5604,-0.14105224609375,0.26947021484375,0.9449462890625,0.6280517578125,-3.476715087890625,1.876678466796875,1,2.0,1.0,1.0,2.0,75.66
2022-02-26 15:14:18.031,0.64683646,-0.122488566,0.42005402,1.1431675,0.60578793,-0.07425342,0.0011447778,0.9767871,1.0946662,-0.15367183,-0.10624067,1.3270397,1.5506026,0.4246562,0.5075384,1.0407256,1.4527135,0.5421657,0.54942155,0.74703103,921.9048,848.1685,842.52747,818.3516,767.5824,-0.06683349609375,0.257080078125,0.975341796875,-1.891632080078125,0.11962890625,-4.246826171875,1,1.0,1.0,1.0,1.0,75.66
2022-02-26 15:14:19.052,0.43894023,0.22857563,0.51117015,1.1431675,0.54211515,-0.029225774,-0.12059496,0.9767871,1.0874726,0.009738512,-0.010797101,1.3270397,1.5650088,0.60623026,0.4419248,1.0407256,1.4539253,0.54834205,0.519445,0.74703103,828.4249,836.08057,843.3333,860.65936,745.0183,-0.05145263671875,0.216552734375,0.9676513671875,-6.871185302734375,-7.97027587890625,-0.6280517578125,1,1.0,1.0,1.0,1.0,75.66
2022-02-26 15:14:19.764,,,,,,,,,,,,,,,,,,,,,,,,,,,,,,,,,,,,,,/muse/elements/blink
2022-02-26 15:14:20.074,0.43894023,0.50162727,0.7210655,1.3003205,0.54211515,0.05513361,-0.29126498,1.1151447,1.0874726,0.31980762,0.1595064,1.8126216,1.5650088,0.8104533,0.40616935,1.4301066,1.4539253,0.6394051,0.40286335,1.3013443,843.73627,846.9597,847.3626,897.326,881.2088,-0.0439453125,0.19281005859375,0.96136474609375,-6.063690185546875,3.828125,-1.218719482421875,1,1.0,1.0,1.0,1.0,75.66
2022-02-26 15:14:20.969,,,,,,,,,,,,,,,,,,,,,,,,,,,,,,,,,,,,,,/muse/elements/blink
2022-02-26 15:14:21.097,0.43894023,0.35524434,0.5134443,1.5524709,0.54211515,0.1649704,0.154765,1.2913398,1.0874726,0.4230397,0.27562964,1.7174845,1.5650088,0.53479594,0.043768026,1.478638,1.4539253,0.31669188,0.21478023,1.1220034,850.989,838.49817,846.55676,832.4542,832.0513,-0.11102294921875,0.224853515625,0.964111328125,1.009368896484375,2.729034423828125,-1.233673095703125,1,1.0,1.0,1.0,1.0,75.66
2022-02-26 15:14:22.003,,,,,,,,,,,,,,,,,,,,,,,,,,,,,,,,,,,,,,/muse/elements/blink
2022-02-26 15:14:22.117,0.43894023,0.70488375,0.7759139,1.5524709,0.54211515,0.6959441,0.14145829,1.2913398,1.0874726,0.46684098,0.31452975,1.7174845,1.5650088,0.5635355,0.3713868,1.478638,1.4539253,0.37426937,0.45429802,1.1220034,811.50183,855.82416,836.4835,818.7546,699.4872,-0.10113525390625,0.2803955078125,0.96563720703125,-2.923431396484375,1.263580322265625,-6.661834716796875,1,1.0,1.0,1.0,1.0,75.66
2022-02-26 15:14:23.139,0.43894023,0.689321,0.7522512,1.5524709,0.54211515,0.6297658,-0.28245264,1.2913398,1.0874726,0.46490538,0.15575089,1.7174845,1.5650088,0.5551588,0.6616684,1.478638,1.4539253,0.5755324,0.5131432,1.1220034,826.4103,858.6447,840.5128,840.5128,967.4359,-0.10211181640625,0.27239990234375,0.94769287109375,-1.084136962890625,2.34771728515625,-1.734619140625,1,2.0,1.0,1.0,2.0,75.66
2022-02-26 15:14:24.164,0.43894023,0.08869743,0.37819207,1.1972603,0.54211515,-0.53228676,-0.454052,1.2076001,1.0874726,-0.11655348,-0.094949536,1.265491,1.5650088,0.56077975,0.67603725,0.8636395,1.4539253,0.51533955,0.45315412,0.7454013,823.9927,856.63007,838.49817,821.978,815.5311,-0.17864990234375,0.27130126953125,0.9656982421875,-1.136474609375,0.1495361328125,-0.0897216796875,1,1.0,1.0,1.0,1.0,75.52
2022-02-26 15:14:24.713,,,,,,,,,,,,,,,,,,,,,,,,,,,,,,,,,,,,,,/muse/elements/blink
2022-02-26 15:14:25.185,0.43894023,0.25045514,-0.0699242,1.0221767,0.54211515,-0.09573177,-0.09467554,0.90488374,1.0874726,0.19517118,0.18176566,1.2117989,1.5650088,0.5259746,0.6304664,0.73073256,1.4539253,0.33029723,0.39739817,0.80715203,780.87915,836.8865,844.94507,809.4872,824.7985,-0.16473388671875,0.21063232421875,0.93951416015625,-8.08990478515625,3.506622314453125,-0.471038818359375,1,1.0,1.0,1.0,1.0,75.52
2022-02-26 15:14:26.226,0.43894023,0.2548231,-0.1712856,1.0221767,0.54211515,-0.027670521,-0.13979933,0.90488374,1.0874726,0.17665827,0.29443738,1.2117989,1.5650088,0.68659455,0.5242901,0.73073256,1.4539253,0.31756026,0.57321006,0.80715203,826.0073,840.5128,849.7802,863.8828,831.6484,-0.17987060546875,0.22247314453125,0.96954345703125,-1.65985107421875,4.403839111328125,-1.62994384765625,1,1.0,1.0,1.0,1.0,75.52
2022-02-26 15:14:27.175,,,,,,,,,,,,,,,,,,,,,,,,,,,,,,,,,,,,,,/muse/elements/blink
2022-02-26 15:14:27.239,0.43894023,-0.08942885,-0.2651459,1.0221767,0.54211515,-0.43879977,-0.4172387,0.90488374,1.0874726,0.026482152,0.047407933,1.2117989,1.5650088,0.5741596,0.51140594,0.73073256,1.4539253,0.45004985,0.5423842,0.80715203,806.6667,845.34796,853.00366,856.2271,680.54944,-0.12969970703125,0.20428466796875,0.9775390625,-2.03369140625,1.368255615234375,-3.701019287109375,1,2.0,1.0,1.0,2.0,75.52
2022-02-26 15:14:28.264,0.43894023,-0.10296418,0.293676,1.0221767,0.54211515,-0.09672173,0.05993455,0.90488374,1.0874726,-0.06557996,0.16861609,1.2117989,1.5650088,0.56860226,0.74026257,0.73073256,1.4539253,0.67120945,0.5426489,0.80715203,899.7436,862.674,846.55676,858.6447,862.27106,-0.14892578125,0.15423583984375,0.98211669921875,-2.3028564453125,5.51788330078125,0.49346923828125,1,2.0,1.0,1.0,2.0,75.52
2022-02-26 15:14:29.175,,,,,,,,,,,,,,,,,,,,,,,,,,,,,,,,,,,,,,/muse/elements/blink
2022-02-26 15:14:29.274,0.67112845,9.5975044E-4,-0.20007305,1.0221767,0.7041113,-0.23059386,-0.359394,0.90488374,0.7569558,-0.089702524,0.01776441,1.2117989,1.3555365,0.6748589,0.583559,0.73073256,1.2699441,1.1428881,0.48636368,0.80715203,882.8205,840.10986,838.0952,848.1685,844.1392,-0.18768310546875,0.31597900390625,0.96881103515625,-0.471038818359375,0.01495361328125,12.359161376953125,1,1.0,1.0,1.0,1.0,75.52
2022-02-26 15:14:30.294,0.6151191,0.038641732,-0.108833656,1.3277428,0.32601497,-0.3180009,-0.3460235,1.4483082,0.5969237,-0.036740236,0.321224,1.5627804,1.1814361,0.9449934,0.8250219,1.3659816,1.132612,1.1224706,0.5515233,1.0922889,875.16486,838.9011,843.3333,840.5128,652.74725,-0.16058349609375,0.2720947265625,0.937744140625,-4.08233642578125,4.269256591796875,-0.710296630859375,1,1.0,1.0,1.0,1.0,75.52
2022-02-26 15:14:31.308,0.6151191,-0.09409281,0.4682622,1.1708854,0.32601497,-0.38057014,-0.06920977,1.2631179,0.5969237,0.23803899,0.321224,1.503392,1.1814361,0.83535665,0.6978582,1.2427763,1.132612,0.7487438,0.5995656,1.1245389,922.71063,854.61536,828.8278,832.4542,1008.1319,-0.157958984375,0.18853759765625,0.9803466796875,-8.261871337890625,11.327362060546875,-10.385284423828125,1,1.0,1.0,1.0,1.0,75.52
2022-02-26 15:14:32.316,0.6151191,-0.09989573,0.4089409,1.1925466,0.32601497,-0.15328328,-0.33625537,1.2633107,0.5969237,0.2647489,0.16202086,1.4394263,1.1814361,0.84985656,0.68265486,1.1558546,1.132612,0.5758867,0.5036802,1.0618656,758.315,837.28937,863.47986,890.07324,804.2491,-0.20343017578125,0.2054443359375,0.9722900390625,-4.568328857421875,13.047027587890625,-3.805694580078125,1,1.0,1.0,1.0,1.0,75.52
2022-02-26 15:14:33.334,0.6151191,-0.05527553,0.017898144,1.41778,0.32601497,-0.18987852,-0.5475329,1.2044631,0.5969237,-0.054774884,-0.07193878,1.705588,1.1814361,0.6890774,0.66219366,1.0641193,1.132612,0.44744107,0.5723622,0.95951784,783.2967,871.53845,816.337,832.8571,724.0659,-0.1541748046875,0.2171630859375,0.95062255859375,-3.372039794921875,4.508514404296875,-0.904693603515625,1,1.0,1.0,1.0,1.0,75.42
2022-02-26 15:14:34.345,0.8483691,-0.06266381,0.021616949,1.698911,0.7461877,-0.45295537,-0.40185624,1.5355548,0.7519612,-0.11001843,-0.13341473,1.7327957,1.1485522,0.6115718,0.5157212,1.2271907,1.3778154,0.6055928,0.46557295,1.1883106,842.1245,853.8095,856.2271,848.97437,817.5458,-0.13836669921875,0.2344970703125,0.9654541015625,-2.220611572265625,-3.7982177734375,3.461761474609375,1,1.0,1.0,1.0,1.0,75.42
2022-02-26 15:14:35.168,,,,,,,,,,,,,,,,,,,,,,,,,,,,,,,,,,,,,,/muse/elements/blink
2022-02-26 15:14:35.380,0.849217,-0.123162076,-0.21084137,1.5594925,0.6372861,-0.058896475,-0.23047023,1.4959375,0.65080905,0.040978793,-0.06522379,1.6547014,1.1472336,0.5594213,0.6751458,1.1595174,1.3526263,0.56069845,0.54211384,1.3114026,905.78754,826.0073,857.8388,851.79486,965.0183,-0.121337890625,0.24102783203125,0.97784423828125,-4.538421630859375,5.555267333984375,1.854248046875,1,1.0,1.0,1.0,1.0,75.42
2022-02-26 15:14:36.386,0.8228254,-0.306812,-0.23686458,1.5594925,0.47226477,-0.30280888,-0.2987267,1.4959375,0.5138968,-0.006023376,0.020823702,1.6547014,1.1439325,0.68801767,0.7914487,1.1595174,1.3797586,0.5676422,0.6945371,1.3114026,892.0879,854.61536,853.00366,857.03296,885.64105,-0.1658935546875,0.2281494140625,0.9588623046875,-2.504730224609375,7.394561767578125,-2.235565185546875,1,1.0,1.0,1.0,1.0,75.42
2022-02-26 15:14:37.387,0.8228254,0.22721314,-0.2071456,1.5594925,0.47226477,-0.26376203,-0.55351704,1.4959375,0.5138968,0.039079238,-0.015932795,1.6547014,1.1439325,0.63103235,0.72971433,1.1595174,1.3797586,0.6264006,0.58620715,1.3114026,864.68866,856.63007,841.7216,832.0513,935.6044,-0.19451904296875,0.2523193359375,0.9537353515625,-1.861724853515625,5.390777587890625,2.190704345703125,1,2.0,1.0,1.0,2.0,75.42
2022-02-26 15:14:38.409,0.8228254,0.1779692,-0.21484295,1.5647142,0.47226477,-0.2601977,-0.23950236,1.6849066,0.5138968,-0.074307665,-0.32770598,1.4614319,1.1439325,0.57734156,0.69369096,1.095252,1.3797586,0.69494605,0.5027284,1.0454705,885.64105,851.79486,845.7509,836.8865,918.2784,-0.11749267578125,0.2120361328125,0.98968505859375,-4.852447509765625,-5.749664306640625,-3.33465576171875,1,1.0,1.0,1.0,1.0,75.42
2022-02-26 15:14:38.742,,,,,,,,,,,,,,,,,,,,,,,,,,,,,,,,,,,,,,/muse/elements/blink
2022-02-26 15:14:39.428,0.8228254,0.14708175,-0.1030688,1.6252024,0.47226477,0.0179032,-0.349951,1.7901527,0.5138968,0.40736884,0.33855125,1.4422243,1.1439325,0.5559508,0.70159686,1.0762784,1.3797586,0.6033516,0.6982114,0.9917118,799.011,842.9304,844.94507,828.8278,813.1135,-0.14483642578125,0.177978515625,0.95428466796875,-2.205657958984375,3.177642822265625,2.43743896484375,1,1.0,1.0,1.0,1.0,75.42
2022-02-26 15:14:40.442,0.8228254,0.051755458,-0.10511389,0.95977134,0.47226477,-0.020682788,-0.494528,0.3665057,0.5138968,0.40736884,0.32616574,0.70210314,1.1439325,0.586685,0.5619055,0.82172483,1.3797586,0.67959297,0.570551,0.89981264,908.20514,855.42126,849.3773,830.84247,846.55676,-0.1583251953125,0.18450927734375,0.92529296875,-8.067474365234375,-2.73651123046875,-11.783447265625,1,1.0,1.0,1.0,1.0,75.42
2022-02-26 15:14:41.043,,,,,,,,,,,,,,,,,,,,,,,,,,,,,,,,,,,,,,/muse/elements/blink
2022-02-26 15:14:41.462,0.8228254,-0.040763818,-0.15661497,0.95977134,0.47226477,-0.06533564,-0.46092153,0.3665057,0.5138968,-0.13392623,0.04654726,0.70210314,1.1439325,0.71207815,0.5074055,0.82172483,1.3797586,0.66635954,0.47502834,0.89981264,878.7912,856.2271,842.52747,887.25275,836.08057,-0.16729736328125,0.15771484375,0.97100830078125,-1.614990234375,1.218719482421875,4.059906005859375,1,1.0,1.0,1.0,1.0,75.42
2022-02-26 15:14:42.470,0.8228254,0.21895368,0.19013816,0.996328,0.47226477,0.07609593,-0.11471973,0.4050723,0.5138968,-0.037222415,0.053954814,0.6888576,1.1439325,0.6812142,0.5395645,0.8263059,1.3797586,0.7337486,0.5583826,0.93306565,825.2015,842.9304,850.18317,852.6007,770.40295,-0.17132568359375,0.16986083984375,0.96649169921875,-0.299072265625,-1.233673095703125,2.280426025390625,1,1.0,1.0,1.0,1.0,75.42
2022-02-26 15:14:43.501,1.0045375,-0.1905331,0.01721756,0.7606034,0.69746006,-0.23421197,-0.4264697,0.56091017,1.0600195,0.018070234,-0.18156311,0.7520189,1.3311629,0.5455843,0.5181566,0.9479828,1.3688014,0.631464,0.5486191,1.0207027,860.2564,848.5714,838.9011,836.8865,900.54944,-0.191162109375,0.18121337890625,0.96368408203125,-5.802001953125,1.48040771484375,-0.418701171875,1,1.0,1.0,1.0,1.0,75.28
2022-02-26 15:14:44.514,0.73110676,0.19347407,0.20155592,0.881486,0.48229265,-0.29049736,-0.5638683,0.44168004,1.0744903,0.21674198,-0.17551588,0.84740955,1.4453077,0.41508034,0.6916317,0.84255344,1.5884938,0.52295333,0.5165577,0.9628387,851.39197,853.4066,830.4396,826.0073,731.31866,-0.176513671875,0.17156982421875,0.96588134765625,0.396270751953125,7.25250244140625,-0.418701171875,1,1.0,1.0,1.0,1.0,75.28
2022-02-26 15:14:45.444,,,,,,,,,,,,,,,,,,,,,,,,,,,,,,,,,,,,,,/muse/elements/jaw_clench
2022-02-26 15:14:45.553,0.6203612,0.1484916,0.44003934,0.7686135,0.53957725,-0.18509722,0.22130059,0.8048107,0.8211211,0.28363502,0.49154636,1.2227287,1.4116044,0.4594633,0.76211625,0.96622753,1.3153586,0.52342737,0.56182957,0.84652215,631.79486,874.35895,847.76556,651.53845,829.2308,-0.16778564453125,0.20263671875,0.9727783203125,5.2337646484375,1.79443359375,2.51220703125,1,1.0,1.0,1.0,1.0,75.28
2022-02-26 15:14:45.749,,,,,,,,,,,,,,,,,,,,,,,,,,,,,,,,,,,,,,/muse/elements/blink
2022-02-26 15:14:46.570,0.8531759,0.3944519,0.6898629,0.8323809,0.688382,0.28809133,0.66206175,1.0850979,0.64544845,0.35521892,0.54855824,1.1598594,1.3617572,0.65881234,0.6975107,0.8386239,1.3260505,0.6760812,0.44790637,0.9163362,859.45056,855.82416,838.9011,863.0769,1006.1172,-0.15057373046875,0.2449951171875,0.97503662109375,-5.99639892578125,1.495361328125,16.22467041015625,1,1.0,1.0,1.0,1.0,75.28
2022-02-26 15:14:47.582,0.8531759,0.16276467,0.14318737,0.59098685,0.688382,0.05614976,0.19480263,0.28376403,0.64544845,0.44357455,0.21396953,0.7109271,1.3617572,0.69100755,0.61185473,0.99013513,1.3260505,0.66112274,0.5525493,1.0853255,746.63007,846.55676,850.18317,844.5421,796.1905,-0.136474609375,0.2418212890625,0.9610595703125,-0.1495361328125,4.78515625,0.201873779296875,1,1.0,1.0,1.0,1.0,75.28
2022-02-26 15:14:48.597,0.8531759,-0.09408029,0.27227357,0.8560137,0.688382,-0.33971226,-0.2789306,0.8416065,0.64544845,0.21128377,0.022767778,0.6943052,1.3617572,0.68158406,0.7812849,0.93618697,1.3260505,0.63534886,0.6049557,1.022146,911.8315,836.4835,853.8095,852.6007,928.3516,-0.259521484375,0.17791748046875,0.9398193359375,-5.420684814453125,-2.220611572265625,1.891632080078125,1,1.0,1.0,1.0,1.0,75.28
2022-02-26 15:14:49.611,0.8531759,0.074223004,0.35517973,0.64042735,0.688382,-0.37588084,-0.09090189,0.3867612,0.64544845,0.20179626,0.21833348,0.59469503,1.3617572,0.57408595,0.9573066,0.7899518,1.3260505,0.64108044,0.6873594,0.9400812,904.9817,843.3333,829.6337,849.7802,792.1612,-0.18878173828125,0.16107177734375,0.9639892578125,-5.21881103515625,4.08233642578125,-7.1478271484375,1,1.0,1.0,1.0,1.0,75.28
2022-02-26 15:14:50.613,0.8531759,0.4754714,0.48189652,0.55939543,0.688382,0.09732877,0.22805724,0.5454766,0.64544845,0.36397675,0.3748764,0.77818346,1.3617572,0.5550612,0.7638064,0.91770756,1.3260505,0.6183293,0.6874367,1.0486346,888.46155,855.0183,838.0952,838.9011,815.9341,-0.17291259765625,0.17694091796875,0.94244384765625,-7.40203857421875,-3.99261474609375,-3.21502685546875,1,1.0,1.0,1.0,1.0,75.28
2022-02-26 15:14:51.643,0.8531759,0.8027803,0.65190333,0.7185982,0.688382,0.3175182,0.3787958,0.5985545,0.64544845,0.33691815,0.4223268,0.90891474,1.3617572,0.64625007,0.6612053,0.91988313,1.3260505,0.60666156,0.54441017,1.1280426,864.2857,843.3333,843.73627,865.4945,905.78754,-0.12847900390625,0.19189453125,0.95758056640625,-0.85235595703125,0.859832763671875,2.51220703125,1,1.0,1.0,1.0,1.0,75.28
2022-02-26 15:14:52.659,0.8531759,0.557902,0.4470891,0.92676836,0.688382,0.009854228,0.074191086,0.50666016,0.64544845,0.22341016,0.42632553,1.2704343,1.3617572,0.6020704,0.66075915,1.0529674,1.3260505,0.563073,0.5914282,0.8734721,716.8132,869.5238,850.18317,786.9231,774.83514,-0.11572265625,0.209716796875,0.96466064453125,1.1065673828125,-1.323394775390625,-2.49725341796875,1,1.0,1.0,1.0,1.0,75.28
2022-02-26 15:14:52.856,,,,,,,,,,,,,,,,,,,,,,,,,,,,,,,,,,,,,,/muse/elements/blink
2022-02-26 15:14:53.449,,,,,,,,,,,,,,,,,,,,,,,,,,,,,,,,,,,,,,/muse/elements/blink
2022-02-26 15:14:53.662,0.8531759,0.0025865494,0.4126063,0.9293848,0.688382,-0.37237373,0.082474805,0.5769979,0.64544845,-0.15276384,0.41566095,1.2642362,1.3617572,0.56872237,0.5931964,1.1133978,1.3260505,0.585594,0.6966604,0.9622141,812.3077,849.7802,836.8865,834.4689,800.2198,-0.12493896484375,0.2044677734375,0.95458984375,-1.95892333984375,2.549591064453125,3.162689208984375,1,1.0,1.0,1.0,1.0,75.19
2022-02-26 15:14:54.672,0.8531759,-0.036811057,0.37304214,0.66149664,0.688382,-0.46435338,0.09682347,0.54912853,0.64544845,-0.17298146,0.25278223,0.37754476,1.3617572,0.59574807,0.4566721,0.9750071,1.3260505,0.52157843,0.51285625,0.9581028,774.43225,839.707,831.2454,842.1245,774.43225,-0.1356201171875,0.20904541015625,0.95941162109375,-0.28411865234375,1.233673095703125,3.611297607421875,1,1.0,1.0,1.0,1.0,75.19
2022-02-26 15:14:55.694,0.8531759,0.2266147,0.2727538,0.97168285,0.688382,-0.36245605,0.08404682,0.85546464,0.64544845,0.034127522,0.2677443,0.81886435,1.3617572,0.49430478,0.572762,0.90507525,1.3260505,0.59150666,0.58734035,1.0552961,874.35895,841.7216,857.03296,848.97437,894.10254,-0.1517333984375,0.23443603515625,0.9698486328125,-3.1402587890625,3.828125,7.49176025390625,1,1.0,1.0,1.0,1.0,75.19
2022-02-26 15:14:56.429,,,,,,,,,,,,,,,,,,,,,,,,,,,,,,,,,,,,,,/muse/elements/blink
2022-02-26 15:14:56.709,0.8531759,0.8946158,0.58353466,1.0382999,0.688382,0.36548287,0.40239432,0.93792355,0.64544845,0.26038283,0.5637635,0.8949664,1.3617572,0.43764207,0.69500315,0.8944837,1.3260505,0.6595536,0.6538378,1.119598,835.6777,850.989,836.4835,818.7546,840.5128,-0.0828857421875,0.19921875,0.97601318359375,0.059814453125,1.00189208984375,4.553375244140625,1,1.0,1.0,1.0,1.0,75.19
2022-02-26 15:14:57.731,0.8531759,0.68105745,0.53228176,0.94969493,0.688382,0.0911287,0.623112,0.7987468,0.64544845,0.21416476,0.592014,0.8172043,1.3617572,0.34543195,0.75246644,0.93628305,1.3260505,0.25467196,0.5443235,1.0607896,798.20514,844.1392,857.03296,801.02563,838.0952,-0.118896484375,0.197998046875,0.96966552734375,-1.2860107421875,-3.431854248046875,1.069183349609375,1,1.0,1.0,1.0,1.0,75.19
2022-02-26 15:14:58.741,,,,,,,,,,,,,,,,,,,,,,,,,,,,,,,,,,,,,,/muse/elements/blink
2022-02-26 15:14:58.742,0.8531759,0.54636663,0.3021582,1.015493,0.688382,0.0649815,0.25832444,0.8550753,0.64544845,0.20392855,0.100498624,0.6326946,1.3617572,0.51906097,0.610957,1.1112946,1.3260505,0.3511123,0.42190078,0.9596564,1045.2014,843.3333,832.8571,938.022,909.41394,-0.09857177734375,0.23486328125,0.96722412109375,-4.74029541015625,-1.2261962890625,-3.84307861328125,1,1.0,1.0,1.0,1.0,75.19
2022-02-26 15:14:59.759,0.8531759,0.8978314,0.28756344,1.1267256,0.688382,0.07054078,0.25765273,0.9879532,0.64544845,0.39017293,0.100498624,0.62510973,1.3617572,0.7364828,0.6434116,1.254694,1.3260505,0.63092065,0.48497802,1.0339018,810.696,863.8828,851.79486,854.21246,785.7143,-0.06341552734375,0.2197265625,0.97900390625,-1.772003173828125,3.297271728515625,-1.36077880859375,1,1.0,1.0,1.0,1.0,75.19
2022-02-26 15:15:00.778,0.8531759,0.19751978,0.35707614,0.51718223,0.688382,-0.19680133,-0.51668334,0.5009571,0.64544845,0.08750169,-0.38270345,1.0049498,1.3617572,0.6536786,0.65948766,1.0393258,1.3260505,0.49698192,0.6066765,1.0623196,897.326,856.63007,846.1539,825.2015,824.7985,-0.11492919921875,0.2266845703125,0.9481201171875,-2.55706787109375,5.72723388671875,-6.676788330078125,1,1.0,1.0,1.0,1.0,75.19
2022-02-26 15:15:01.790,0.8531759,-0.1758659,-0.050701592,0.7417549,0.688382,-0.29050925,-0.6588789,0.58692616,0.64544845,-0.10047508,-0.41796878,0.9977223,1.3617572,0.49058083,0.6188354,1.0400747,1.3260505,0.31272975,0.45775986,1.0109323,838.9011,844.1392,844.94507,838.0952,802.6374,-0.118408203125,0.232177734375,0.96343994140625,-1.31591796875,3.028106689453125,-0.478515625,1,1.0,1.0,1.0,1.0,75.19
2022-02-26 15:15:02.809,0.8531759,-0.044255942,-0.18746744,0.69149315,0.688382,-0.6986062,-0.6562401,0.49708235,0.64544845,-0.28933477,-0.5998025,0.5762252,1.3617572,0.5076153,0.6825036,0.95252883,1.3260505,0.2934483,0.52340376,0.9462006,858.6447,862.674,827.619,832.4542,887.6557,-0.10980224609375,0.25006103515625,0.96234130859375,-4.852447509765625,-1.398162841796875,-7.050628662109375,1,1.0,1.0,1.0,1.0,75.19
2022-02-26 15:15:03.723,,,,,,,,,,,,,,,,,,,,,,,,,,,,,,,,,,,,,,/muse/elements/blink
2022-02-26 15:15:03.828,0.8531759,0.15436327,-0.5455079,0.43265948,0.688382,-0.46519017,-0.5408115,0.3915142,0.64544845,0.0367481,-0.049282018,0.57867974,1.3617572,0.5529313,0.5511674,0.9486379,1.3260505,0.42198467,0.39894587,0.9697942,864.68866,837.6923,852.6007,852.1978,943.2601,-0.17926025390625,0.1712646484375,0.974365234375,-5.689849853515625,-1.727142333984375,3.880462646484375,1,1.0,1.0,1.0,1.0,75.06
2022-02-26 15:15:04.858,0.8531759,0.4932905,-0.23060378,0.70438516,0.688382,0.06671603,-0.42006445,0.51075333,0.64544845,0.28392273,0.16271512,0.48461804,1.3617572,0.6567386,0.6328333,1.0088161,1.3260505,0.83907694,0.73417825,1.1591829,768.3883,844.1392,843.3333,858.6447,763.95605,-0.12420654296875,0.207275390625,0.97528076171875,-3.028106689453125,1.158905029296875,-1.36077880859375,1,1.0,1.0,1.0,1.0,75.06
2022-02-26 15:15:05.881,0.8531759,-0.014791128,-0.48332137,1.0426643,0.688382,-0.39979652,-0.45368892,0.48168468,0.64544845,-0.081164055,-0.053288814,0.5246363,1.3617572,0.5971684,0.6077265,0.9409743,1.3260505,0.64631224,0.5503108,1.0475425,725.6777,840.9158,848.1685,813.1135,801.8315,-0.14019775390625,0.2176513671875,0.936279296875,4.777679443359375,3.51409912109375,-2.848663330078125,1,1.0,1.0,1.0,1.0,75.06
2022-02-26 15:15:06.898,0.8531759,-0.088723235,-0.11604121,1.0035084,0.688382,-0.4439806,-0.20710121,0.7779289,0.64544845,-0.06334125,0.008926617,0.68458945,1.3617572,0.4772707,0.41008,0.82367206,1.3260505,0.4556817,0.5376085,1.1300969,747.03296,849.3773,832.8571,815.5311,808.2784,-0.11492919921875,0.26446533203125,0.9608154296875,-1.936492919921875,2.25799560546875,0.25421142578125,1,1.0,1.0,1.0,1.0,75.06
2022-02-26 15:15:07.924,0.8531759,-0.28179032,0.07288542,0.9098999,0.688382,-0.5070553,-0.48147935,0.615277,0.64544845,-0.14212112,0.06062944,1.0296367,1.3617572,0.5498313,0.430984,0.9292434,1.3260505,0.5250454,0.39634034,1.0174806,788.93774,838.9011,847.3626,860.2564,796.5934,-0.07843017578125,0.2510986328125,0.94976806640625,12.78533935546875,8.545989990234375,13.80218505859375,1,1.0,1.0,1.0,1.0,75.06
2022-02-26 15:15:08.932,0.8531759,-0.32254514,0.269153,1.1154324,0.688382,-0.45810962,-0.5205635,0.4302112,0.64544845,-0.005488314,0.116902396,1.1865127,1.3617572,0.7175842,0.41973817,0.9447296,1.3260505,0.5882665,0.28201473,0.800963,929.9634,844.94507,838.49817,834.0659,925.12823,-0.1090087890625,0.2430419921875,0.965087890625,-7.52166748046875,2.474822998046875,3.78326416015625,1,1.0,1.0,1.0,1.0,75.06
2022-02-26 15:15:09.947,0.8531759,0.034699045,0.58386284,0.9429738,0.688382,-0.30049527,0.121338286,0.57195234,0.64544845,0.13294142,0.16317232,1.0786012,1.3617572,0.56052804,0.49381948,0.88449746,1.3260505,0.45069784,0.417583,0.97133774,904.57874,838.49817,832.0513,853.8095,778.0586,-0.0665283203125,0.194580078125,0.97650146484375,0.01495361328125,-2.684173583984375,-6.706695556640625,1,1.0,1.0,1.0,1.0,75.06
2022-02-26 15:15:10.973,0.8531759,0.2042748,0.65932226,0.81088775,0.688382,-0.095927075,0.28859425,0.44641942,0.64544845,0.14459418,0.020142417,0.7949281,1.3617572,0.41441408,0.48726407,0.8685415,1.3260505,0.5275265,0.69567215,1.0008572,883.6264,855.42126,865.09155,861.06226,994.43225,-0.01947021484375,0.2618408203125,0.97088623046875,5.33843994140625,5.99639892578125,14.75921630859375,1,1.0,1.0,1.0,1.0,75.06
2022-02-26 15:15:11.977,0.5829682,0.17122127,0.50231004,0.7089656,0.6582413,-0.034154557,-0.10242897,0.56844085,0.5298396,0.28360444,-0.007310586,0.568326,1.0297493,0.417627,0.47568157,1.1620033,1.1997356,0.5483474,0.56542313,1.0247265,929.15753,846.1539,854.61536,900.9524,791.75824,-0.12725830078125,0.29205322265625,0.94647216796875,-7.0880126953125,2.265472412109375,3.386993408203125,1,1.0,1.0,1.0,1.0,75.06
2022-02-26 15:15:12.074,,,,,,,,,,,,,,,,,,,,,,,,,,,,,,,,,,,,,,/muse/elements/blink
2022-02-26 15:15:12.996,0.5829682,0.27140367,0.31277862,0.7089656,0.6582413,0.12593937,-0.044759974,0.56844085,0.5298396,0.34735587,0.34081593,0.568326,1.0297493,0.7057213,0.8421921,1.1620033,1.1997356,0.58546954,0.83877325,1.0247265,898.5348,850.58606,842.9304,840.9158,915.05493,-0.22845458984375,0.37396240234375,0.97833251953125,4.78515625,5.4730224609375,11.865692138671875,1,1.0,1.0,1.0,1.0,75.06
2022-02-26 15:15:14.018,0.5829682,0.42958832,0.4231886,0.667233,0.6582413,-0.16094919,0.07567043,0.35792482,0.5298396,0.14740239,0.53781694,0.32983884,1.0297493,0.5293035,0.789447,0.88507974,1.1997356,0.611039,0.7591115,0.86389524,726.8865,845.34796,844.1392,852.1978,898.1319,-0.15289306640625,0.2833251953125,0.91204833984375,-3.8580322265625,4.852447509765625,4.433746337890625,1,1.0,1.0,1.0,1.0,74.97
2022-02-26 15:15:15.042,0.5829682,0.57098293,0.74128723,1.0613618,0.6582413,0.046217386,0.15405664,1.265101,0.5298396,0.25655472,0.5495333,1.8192682,1.0297493,0.30637378,0.6038646,1.3540053,1.1997356,0.6004834,0.691248,1.0083486,737.76556,849.7802,842.52747,845.34796,645.89746,-0.0667724609375,0.147705078125,0.95770263671875,-1.742095947265625,0.889739990234375,-8.314208984375,1,1.0,1.0,1.0,1.0,74.97
2022-02-26 15:15:16.051,0.5829682,0.3561048,0.8343377,0.82705915,0.6582413,-0.057885144,-0.020639075,1.093824,0.5298396,0.13172758,0.1822525,1.4152265,1.0297493,0.38389367,0.46876428,1.1183267,1.1997356,0.3934719,0.30188102,0.90976256,801.8315,845.34796,852.6007,844.5421,794.9817,-0.171142578125,0.242431640625,0.944580078125,3.66363525390625,1.3458251953125,-7.230072021484375,1,1.0,1.0,1.0,1.0,74.97
2022-02-26 15:15:17.079,0.5829682,0.022280062,-0.16746716,0.95624274,0.6582413,-0.37851828,-0.4903067,0.68472993,0.5298396,-0.16143736,-0.19972484,0.6834613,1.0297493,0.49802878,0.5312848,0.93773746,1.1997356,0.32883167,0.25571907,0.9563725,832.8571,841.31866,857.8388,842.9304,931.5751,-0.17645263671875,0.21209716796875,0.93560791015625,1.4056396484375,-0.171966552734375,2.758941650390625,1,1.0,1.0,1.0,1.0,74.97
2022-02-26 15:15:17.892,,,,,,,,,,,,,,,,,,,,,,,,,,,,,,,,,,,,,,/muse/elements/blink
2022-02-26 15:15:18.084,0.77745765,0.1304855,-0.05146182,1.0993859,0.27468285,-0.18684521,-0.32057065,0.73623973,0.6900774,-0.12679419,0.08359346,0.67378867,1.2124239,0.38491103,0.6032088,0.9285478,1.2658626,0.26891652,0.2944822,0.95744383,850.989,856.2271,846.55676,841.7216,853.8095,-0.17730712890625,0.18072509765625,0.968994140625,-5.899200439453125,2.175750732421875,2.310333251953125,1,1.0,1.0,1.0,1.0,74.97
2022-02-26 15:15:19.087,0.45030972,0.318741,-0.10804798,0.8641446,0.08873131,-0.056366023,0.021685138,0.5038201,0.4561439,0.07207245,0.16028106,0.6616054,1.2679483,0.42150912,0.6494356,0.8650063,1.076741,0.36823705,0.35154054,0.94982326,931.1722,834.87177,835.6777,872.3443,961.39197,-0.1671142578125,0.14666748046875,0.98583984375,-21.735076904296875,19.90325927734375,0.07476806640625,1,1.0,1.0,1.0,1.0,74.97
2022-02-26 15:15:20.102,0.45030972,0.22259605,-0.31978154,1.019802,0.08873131,-0.113841854,-0.323447,0.8497324,0.4561439,0.09236032,0.073953085,0.6825433,1.2679483,0.65156,0.47524226,0.79851085,1.076741,0.5183997,0.55406636,1.044155,760.7326,853.00366,846.1539,858.24176,782.49084,-0.1610107421875,0.13201904296875,0.94927978515625,-0.3289794921875,-0.64300537109375,0.889739990234375,1,1.0,1.0,1.0,1.0,74.97
2022-02-26 15:15:21.135,0.45030972,0.07967907,-0.32641047,1.2582916,0.08873131,-0.2514739,-0.6493922,0.67257655,0.4561439,0.01778034,-0.05263845,1.309917,1.2679483,0.737568,0.3936489,0.9158352,1.076741,0.6391278,0.54253393,1.0483856,796.5934,850.18317,853.8095,741.79486,918.68134,-0.1728515625,0.1776123046875,0.96466064453125,0.321502685546875,-4.254302978515625,3.252410888671875,1,1.0,1.0,1.0,1.0,74.97
2022-02-26 15:15:21.286,,,,,,,,,,,,,,,,,,,,,,,,,,,,,,,,,,,,,,/muse/elements/blink
2022-02-26 15:15:22.172,0.45030972,-0.13206686,0.09479512,1.4580745,0.08873131,-0.077568695,-0.07587551,0.51801556,0.4561439,0.052387547,0.3064152,1.3027203,1.2679483,0.5758918,0.49547932,0.92419297,1.076741,0.48433763,0.4132532,0.9803786,915.4579,856.63007,839.707,862.27106,808.68134,-0.1793212890625,0.1927490234375,0.94378662109375,-1.74957275390625,6.53472900390625,0.07476806640625,1,1.0,1.0,1.0,1.0,74.97
2022-02-26 15:15:22.940,,,,,,,,,,,,,,,,,,,,,,,,,,,,,,,,,,,,,,/muse/elements/blink
2022-02-26 15:15:23.177,0.45030972,-0.32659373,0.145628,1.4580745,0.08873131,-0.32098594,-0.02428132,0.51801556,0.4561439,-0.15385513,0.339229,1.3027203,1.2679483,0.65379316,0.58064383,0.92419297,1.076741,0.5215651,0.43178716,0.9803786,724.87177,839.304,844.5421,831.6484,743.00366,-0.15887451171875,0.17840576171875,0.9591064453125,-2.8411865234375,2.04864501953125,0.680389404296875,1,1.0,1.0,1.0,1.0,74.83
2022-02-26 15:15:24.184,0.45030972,0.10641736,0.27924824,1.4580745,0.08873131,-0.42568225,0.04057068,0.51801556,0.4561439,-0.11820512,0.15531772,1.3027203,1.2679483,0.79519844,0.45351064,0.92419297,1.076741,0.6711285,0.4501132,0.9803786,862.27106,859.85345,849.7802,845.34796,859.45056,-0.15411376953125,0.19122314453125,0.9576416015625,0.859832763671875,1.79443359375,3.820648193359375,1,2.0,1.0,1.0,2.0,74.83
2022-02-26 15:15:25.203,0.45030972,0.40202945,0.8317914,1.4580745,0.08873131,0.41212392,0.39670378,0.51801556,0.4561439,0.5577339,0.45611578,1.3027203,1.2679483,0.5170351,0.44379616,0.92419297,1.076741,0.6056088,0.44950837,0.9803786,779.67035,856.2271,834.4689,808.68134,740.18317,-0.15997314453125,0.173583984375,0.96551513671875,-3.192596435546875,2.27294921875,2.833709716796875,1,2.0,1.0,1.0,2.0,74.83
2022-02-26 15:15:26.061,,,,,,,,,,,,,,,,,,,,,,,,,,,,,,,,,,,,,,/muse/elements/blink
2022-02-26 15:15:26.214,0.45030972,0.43898943,0.81558555,1.4580745,0.08873131,0.38771567,0.32035086,0.51801556,0.4561439,0.54075,0.45745692,1.3027203,1.2679483,0.43636945,0.61322474,0.92419297,1.076741,0.66471833,0.34862667,0.9803786,796.99634,843.3333,855.42126,873.5531,821.5751,-0.1134033203125,0.21844482421875,0.96044921875,2.28790283203125,8.8824462890625,-2.58697509765625,1,2.0,1.0,1.0,2.0,74.83
2022-02-26 15:15:27.229,0.45030972,0.070267,0.59149414,1.4580745,0.08873131,0.18984282,-0.06503457,0.51801556,0.4561439,0.39483312,0.032757603,1.3027203,1.2679483,0.5446176,0.39655328,0.92419297,1.076741,0.5150148,0.5062436,0.9803786,851.79486,845.7509,850.58606,841.7216,873.95605,-0.1729736328125,0.19268798828125,1.0303955078125,3.3795166015625,10.833892822265625,0.785064697265625,1,2.0,1.0,1.0,2.0,74.83
2022-02-26 15:15:28.240,0.45030972,-0.20527622,0.5419459,0.9183983,0.08873131,-0.5695356,-0.34633103,0.14951183,0.4561439,-0.14983329,-0.023732333,0.72377914,1.2679483,0.58258766,0.41614312,0.92977095,1.076741,0.42516583,0.48422277,0.66444147,743.8095,851.79486,848.1685,817.1429,865.4945,-0.18658447265625,0.19085693359375,0.9613037109375,-4.7552490234375,-8.2843017578125,5.899200439453125,1,1.0,1.0,1.0,1.0,74.83
2022-02-26 15:15:29.276,0.45030972,-0.025186075,0.01875362,0.79420924,0.08873131,-0.50397646,-0.72034377,0.10036291,0.4561439,-0.27185434,0.0055757444,0.7542416,1.2679483,0.54296756,0.4807091,0.9965025,1.076741,0.4060038,0.391222,0.8173323,952.52747,851.39197,853.00366,848.5714,883.6264,-0.1588134765625,0.20233154296875,0.96435546875,-2.429962158203125,14.35546875,3.596343994140625,1,1.0,1.0,1.0,1.0,74.83
2022-02-26 15:15:30.289,0.6647883,-0.043338217,0.1455938,0.97264546,0.4556459,-0.34083796,-0.41367194,0.44061986,0.49722233,-0.20354193,-0.14701949,0.43561295,1.3952845,0.4424069,0.47679266,1.0207441,1.4811841,0.44604516,0.38535175,1.0486618,852.6007,837.6923,843.3333,839.707,844.1392,-0.19744873046875,0.2218017578125,0.9693603515625,4.284210205078125,0.620574951171875,0.7177734375,1,1.0,1.0,1.0,1.0,74.83
2022-02-26 15:15:31.313,0.6647883,-0.026285509,-0.19754115,0.9852473,0.4556459,-0.41152996,-0.40525115,0.5841759,0.49722233,-0.091163665,0.0626441,0.48814213,1.3952845,0.4250468,0.3977701,0.9985544,1.4811841,0.39476347,0.26690838,0.997725,938.4249,851.39197,849.7802,878.3883,966.2271,-0.34881591796875,0.15234375,0.9375,-1.9140625,13.86199951171875,5.570220947265625,1,1.0,1.0,1.0,1.0,74.83
2022-02-26 15:15:32.343,0.6647883,-0.106364064,-0.2343083,0.8145909,0.4556459,-0.2981449,-0.2928886,0.4070391,0.49722233,0.14303918,0.057183273,0.48111132,1.3952845,0.49841443,0.4660984,1.076141,1.4811841,0.322232,0.32172075,0.9892342,831.6484,841.7216,880.40295,842.9304,821.1722,-0.00616455078125,0.15386962890625,0.96319580078125,-1.74957275390625,-9.503021240234375,2.691650390625,1,1.0,1.0,1.0,1.0,74.83
2022-02-26 15:15:32.599,,,,,,,,,,,,,,,,,,,,,,,,,,,,,,,,,,,,,,/muse/elements/blink
2022-02-26 15:15:33.370,0.6647883,0.29709896,0.50705004,0.88760394,0.4556459,-0.04117329,-0.252692,0.36418527,0.49722233,0.43482345,0.005193264,0.47774577,1.3952845,0.6141022,0.392766,1.1205218,1.4811841,0.4809114,0.34457284,1.026532,823.1868,843.73627,850.58606,846.9597,753.0769,-0.168212890625,0.16595458984375,0.94390869140625,-5.0543212890625,-6.273040771484375,3.0206298828125,1,1.0,1.0,1.0,1.0,74.72
2022-02-26 15:15:34.398,0.6647883,0.31986418,0.9383905,0.88760394,0.4556459,-0.19814725,-0.056925714,0.36418527,0.49722233,0.20530394,0.45051935,0.47774577,1.3952845,0.6699386,0.524863,1.1205218,1.4811841,0.4876405,0.31292963,1.026532,798.20514,838.0952,837.28937,818.7546,690.2198,-0.05511474609375,0.14093017578125,0.99407958984375,-0.261688232421875,1.637420654296875,-2.340240478515625,1,2.0,1.0,1.0,2.0,74.72
2022-02-26 15:15:35.415,0.6553586,0.16150405,0.65699655,0.7404628,0.4227827,-0.12856275,-0.33807343,0.33493134,0.6959409,0.20146368,0.48599955,1.0635903,1.1803217,0.6038316,0.5603937,0.96254903,1.5094804,0.7155909,0.44185573,1.1807387,787.326,841.7216,842.1245,825.6044,779.2674,-0.1256103515625,0.20404052734375,0.949462890625,7.13287353515625,-4.306640625,1.009368896484375,1,1.0,1.0,1.0,1.0,74.72
2022-02-26 15:15:36.430,0.76817936,0.32078007,0.54458797,0.68793666,0.4142185,0.114690974,-0.16611142,0.66122055,0.7199287,0.36181325,0.24891393,1.0540873,1.1468687,0.46929055,0.575458,0.8903546,1.4879082,0.4916612,0.4758039,1.2453305,759.5238,852.6007,842.52747,802.23444,866.7033,-0.06744384765625,0.2633056640625,0.95306396484375,-8.770294189453125,-8.964691162109375,-6.10107421875,1,1.0,1.0,1.0,1.0,74.72
2022-02-26 15:15:37.442,0.7530562,0.70613706,0.84155244,0.64760226,0.41385588,0.37700686,0.1619246,1.0013124,0.6968915,0.34818038,0.26589018,1.132668,1.1246021,0.5200126,0.4121101,1.0851346,1.4603505,0.41309595,0.28186837,1.4166929,892.8938,856.63007,842.52747,861.8681,977.1062,-0.1304931640625,0.197021484375,0.9691162109375,-1.973876953125,-0.725250244140625,0.067291259765625,1,1.0,1.0,1.0,1.0,74.72
2022-02-26 15:15:38.459,0.7530562,0.04171099,0.3872288,0.64760226,0.41385588,-0.16280499,-0.17195827,1.0013124,0.6968915,0.32695547,0.29428053,1.132668,1.1246021,0.5607466,0.62589794,1.0851346,1.4603505,0.45050198,0.69649744,1.4166929,885.2381,858.6447,831.6484,870.7326,861.8681,-0.1544189453125,0.250244140625,0.98370361328125,10.27313232421875,6.602020263671875,-0.216827392578125,1,1.0,1.0,1.0,1.0,74.72
2022-02-26 15:15:39.268,,,,,,,,,,,,,,,,,,,,,,,,,,,,,,,,,,,,,,/muse/elements/blink
2022-02-26 15:15:39.468,0.6302629,0.5841318,0.55343634,1.3344787,0.24775833,-0.07572964,0.4099474,1.0608157,0.88917464,0.58884495,0.41925967,0.9629572,1.4325154,0.52392894,0.6074248,1.0886388,1.4485103,0.3574183,0.6389165,1.1113353,888.0586,867.1062,859.85345,848.97437,910.6227,-0.09234619140625,0.21728515625,0.98004150390625,-12.60589599609375,28.808135986328125,-2.953338623046875,1,1.0,1.0,1.0,1.0,74.72
2022-02-26 15:15:40.490,0.6302629,0.65637505,0.52844507,1.319626,0.24775833,0.23959678,0.227477,1.0467598,0.88917464,0.68534714,0.4581612,0.9671624,1.4325154,0.52297044,0.72608364,1.1207937,1.4485103,0.5369653,0.688178,1.1758105,901.3553,850.18317,863.8828,846.9597,853.00366,-0.214111328125,0.20513916015625,0.948486328125,-0.897216796875,2.01873779296875,-0.994415283203125,1,1.0,1.0,1.0,1.0,74.72
2022-02-26 15:15:41.501,0.69067127,0.067653045,-0.083030656,0.56987965,0.2454442,-0.6464206,-0.5730359,0.27627346,0.92809564,-0.07058417,-0.1731147,0.8018893,1.3878667,0.54994464,0.56233907,0.93758667,1.226887,0.57397795,0.51274276,1.0414459,961.39197,854.21246,834.87177,912.23444,802.6374,-0.1651611328125,0.18658447265625,0.94012451171875,-7.65625,-11.67877197265625,0.186920166015625,1,1.0,1.0,1.0,1.0,74.72
2022-02-26 15:15:41.570,,,,,,,,,,,,,,,,,,,,,,,,,,,,,,,,,,,,,,/muse/elements/blink
2022-02-26 15:15:42.519,0.7433497,-0.30043945,0.48015326,0.71599805,0.16343476,0.10195574,0.38715005,0.5171985,0.74202883,0.47555953,0.64996517,0.57798475,1.4267359,0.698224,0.5848135,0.6031913,1.1691841,0.6786731,0.38193366,0.8112021,927.5458,842.52747,844.5421,865.4945,728.9011,-0.06005859375,0.188232421875,0.9686279296875,-0.740203857421875,-0.777587890625,-12.381591796875,1,1.0,1.0,1.0,1.0,74.72
2022-02-26 15:15:43.528,0.3390658,-0.3201448,0.10829452,0.24903217,0.52459157,-0.2827108,-0.14712545,0.18834215,0.98831224,0.2706631,0.51071346,0.8172005,1.3535393,0.5067534,0.60582817,1.141188,1.2428241,0.7615944,0.29273823,0.9024854,834.87177,848.5714,853.8095,831.2454,741.79486,-0.16845703125,0.23236083984375,0.96490478515625,1.263580322265625,-1.786956787109375,5.39825439453125,1,1.0,1.0,1.0,1.0,74.56
2022-02-26 15:15:44.548,0.26054323,-0.46403834,-0.65008754,0.43599913,0.43772197,-0.37870124,-0.65035427,0.31677818,0.964943,-0.1257635,-0.414151,0.97244346,1.279467,0.4575461,0.6008088,1.1268154,1.2221569,0.6867516,0.29929674,0.9758422,855.0183,839.707,860.65936,850.18317,768.3883,-0.1258544921875,0.24072265625,0.9571533203125,7.3272705078125,-3.1103515625,-0.097198486328125,1,1.0,1.0,1.0,1.0,74.56
2022-02-26 15:15:45.571,1.3431132,-0.20468317,0.43435487,1.0201633,1.1676794,-0.25270236,-0.16136184,0.9501101,1.0742371,-0.14227203,-0.199265,1.1811881,1.3243839,0.6922126,0.5721156,1.128683,1.1867299,0.6255819,0.35350466,1.0611084,761.53845,849.3773,849.7802,850.989,920.293,-0.19256591796875,0.2916259765625,0.94158935546875,5.03936767578125,-0.8074951171875,23.34259033203125,1,1.0,1.0,1.0,1.0,74.56
2022-02-26 15:15:46.591,1.1540037,-0.21267839,0.24020314,0.6168809,1.1375446,-0.44832554,-0.3016145,0.6958664,0.90390015,-0.21214089,-0.25745833,1.0958369,1.1624768,0.65489763,0.53306293,1.054956,1.1489285,0.5666637,0.24877417,0.9468284,791.75824,852.1978,839.304,831.6484,796.5934,-0.12701416015625,0.24444580078125,0.94580078125,-1.54022216796875,3.4393310546875,2.833709716796875,1,1.0,1.0,1.0,1.0,74.56
2022-02-26 15:15:46.957,,,,,,,,,,,,,,,,,,,,,,,,,,,,,,,,,,,,,,/muse/elements/blink
2022-02-26 15:15:47.608,1.1158966,0.27266178,0.45232573,0.5398857,1.0036075,0.061124794,-0.052455857,0.439438,0.83337694,0.2858425,-0.19233663,0.73531145,1.130637,0.67636657,0.5731717,0.8872491,1.154339,0.6372469,0.42521048,0.72556746,811.0989,848.5714,854.61536,850.58606,866.30035,-0.05560302734375,0.27593994140625,0.940185546875,-10.923614501953125,0.814971923828125,-5.57769775390625,1,1.0,1.0,1.0,1.0,74.56
2022-02-26 15:15:48.642,1.1158966,0.21451144,0.3189836,0.8512834,1.0036075,0.1359249,-0.08444565,0.46735504,0.83337694,0.36226177,-0.056326024,0.6437408,1.130637,0.6880682,0.6195876,1.0219973,1.154339,0.66534436,0.47948307,1.0607449,756.30035,859.45056,856.2271,824.7985,838.49817,-0.1436767578125,0.25390625,0.95367431640625,-1.9140625,1.772003173828125,6.437530517578125,1,1.0,1.0,1.0,1.0,74.56
2022-02-26 15:15:49.664,-0.10762541,-0.2909686,0.19041756,0.8529083,0.28095964,-0.26960984,-0.2939137,0.3852607,0.37033978,0.27013475,-0.046923216,0.7728163,0.95119935,0.52596205,0.5232702,0.9859288,1.1455431,0.5298722,0.49964532,0.9803608,899.7436,848.5714,849.7802,839.304,788.5348,-0.11309814453125,0.22772216796875,0.9505615234375,-4.32159423828125,-1.009368896484375,-1.502838134765625,1,1.0,1.0,1.0,1.0,74.56
2022-02-26 15:15:50.677,0.54948515,-0.16684535,0.38170308,0.8093594,0.43155304,-0.36368656,-0.17485695,0.2989555,0.43833962,0.2817356,-0.07400524,0.7044854,1.0675895,0.40581572,0.4129086,0.9504203,1.2672207,0.47842702,0.5306173,0.8545184,926.337,849.7802,840.5128,837.6923,931.5751,-0.0379638671875,0.2454833984375,0.95611572265625,-2.1533203125,3.4991455078125,-1.734619140625,1,1.0,1.0,1.0,1.0,74.56
2022-02-26 15:15:51.690,0.8449872,-0.18974993,-0.09187611,1.0357652,0.56709146,-0.4805728,-0.5501978,0.6189741,0.31937554,-0.11961455,0.013718495,1.3120532,1.1794779,0.4538926,0.6368403,1.0615854,1.3829757,0.58527464,0.5614335,1.0950326,893.69965,858.6447,863.0769,845.34796,796.99634,-0.07550048828125,0.2265625,0.93743896484375,-6.57958984375,-3.342132568359375,0.7177734375,1,1.0,1.0,1.0,1.0,74.56
2022-02-26 15:15:52.701,0.8449872,0.07100037,-0.017942661,0.92300165,0.56709146,-0.38807154,-0.2967428,0.7306217,0.31937554,-0.32184333,0.21430379,1.2121519,1.1794779,0.5603763,0.5749445,0.9975061,1.3829757,0.71037656,0.5456804,0.94250405,954.94507,853.4066,857.03296,855.0183,985.9707,-0.070068359375,0.225830078125,0.9671630859375,0.7476806640625,-1.79443359375,5.854339599609375,1,1.0,1.0,1.0,1.0,74.56
2022-02-26 15:15:53.722,0.8449872,0.32903585,-0.058364246,1.1114287,0.56709146,-0.2719464,-0.11664952,0.7015033,0.31937554,0.23237734,0.21535951,1.0796043,1.1794779,0.5305355,0.5467482,1.0617739,1.3829757,0.5210365,0.5280172,1.0112195,872.3443,865.4945,838.0952,823.9927,758.71796,-0.16607666015625,0.1868896484375,0.96685791015625,-5.555267333984375,3.828125,-0.366363525390625,1,1.0,1.0,1.0,1.0,74.47
2022-02-26 15:15:54.748,0.8449872,0.21302763,0.057148438,0.45585015,0.56709146,-0.08972444,-0.024365522,0.54612243,0.31937554,0.13101284,0.06919005,0.65674937,1.1794779,0.536042,0.53584737,0.9382499,1.3829757,0.5156113,0.5871468,1.0896175,732.1245,848.1685,857.03296,787.72894,881.2088,-0.0897216796875,0.186279296875,0.9964599609375,2.452392578125,5.682373046875,-0.261688232421875,1,1.0,1.0,1.0,1.0,74.47
2022-02-26 15:15:54.975,,,,,,,,,,,,,,,,,,,,,,,,,,,,,,,,,,,,,,/muse/elements/blink
2022-02-26 15:15:55.218,,,,,,,,,,,,,,,,,,,,,,,,,,,,,,,,,,,,,,/muse/elements/blink
2022-02-26 15:15:55.773,0.8449872,0.35618225,0.4677229,0.32863557,0.56709146,0.61297226,0.34570655,0.30887935,0.31937554,0.6132742,0.11430059,0.5894479,1.1794779,0.70705986,0.6781273,0.896737,1.3829757,0.66196346,0.4704869,1.088774,782.0879,846.55676,844.1392,855.42126,895.7143,-0.11627197265625,0.18365478515625,0.96923828125,9.16656494140625,-3.072967529296875,0.9869384765625,1,1.0,1.0,1.0,1.0,74.47
2022-02-26 15:15:56.553,,,,,,,,,,,,,,,,,,,,,,,,,,,,,,,,,,,,,,/muse/elements/blink
2022-02-26 15:15:56.793,0.8449872,0.36805952,0.36937127,0.30067617,0.56709146,0.52427375,0.2990229,0.29753485,0.31937554,0.61971825,0.66073024,0.58535385,1.1794779,0.7650405,0.49375927,0.9133143,1.3829757,0.5827832,0.38712814,1.0635866,775.64105,836.8865,876.3736,848.1685,850.989,-0.06414794921875,0.226318359375,0.9803466796875,-3.641204833984375,-2.19818115234375,9.8992919921875,1,1.0,1.0,1.0,1.0,74.47
2022-02-26 15:15:57.797,0.8449872,0.31544712,0.5533537,0.30067617,0.56709146,0.0865673,0.23396406,0.29753485,0.31937554,0.07152257,0.71461284,0.58535385,1.1794779,0.70139647,0.6989876,0.9133143,1.3829757,0.51870865,0.5097674,1.0635866,950.9158,859.0476,853.4066,850.989,763.95605,-0.06884765625,0.2181396484375,0.9580078125,1.039276123046875,-1.60003662109375,-5.929107666015625,1,2.0,1.0,1.0,2.0,74.47
2022-02-26 15:15:58.801,0.7162511,-0.13122137,0.65945005,0.93025416,0.8144228,-0.57099456,-0.24013063,0.74959946,0.6779881,-0.048405867,0.16384792,1.2484077,1.3323468,0.5978749,0.655641,0.96082497,1.3283159,0.4782515,0.6035763,0.9452451,852.6007,838.9011,850.18317,834.4689,848.5714,-0.12335205078125,0.22479248046875,0.9554443359375,-1.03179931640625,1.457977294921875,1.60003662109375,1,1.0,1.0,1.0,1.0,74.47
2022-02-26 15:15:59.820,0.582969,0.1397307,0.2514689,1.0739186,0.3779391,-0.35875285,-0.44427702,0.89604604,0.6039963,-0.0053880685,0.06968097,1.2274222,1.2363969,0.69651127,0.5519194,0.9304666,1.3788978,0.45221078,0.19557749,0.99714917,811.50183,844.1392,861.8681,857.03296,813.91943,0.00128173828125,0.26885986328125,0.987548828125,-2.332763671875,5.301055908203125,-4.015045166015625,1,1.0,1.0,1.0,1.0,74.47
2022-02-26 15:16:00.849,0.7298307,0.21395071,0.06594018,1.2006543,0.61342126,-0.1757246,-0.4147698,0.8283975,0.70475113,0.11707384,-0.5610171,0.92913747,1.2549094,0.6948324,0.65225536,1.0558796,1.344872,0.48777592,0.035435084,0.9255654,800.2198,846.1539,852.6007,855.0183,905.38464,-0.0826416015625,0.242919921875,0.94720458984375,-5.226287841796875,0.13458251953125,2.691650390625,1,1.0,1.0,1.0,1.0,74.47
2022-02-26 15:16:01.163,,,,,,,,,,,,,,,,,,,,,,,,,,,,,,,,,,,,,,/muse/elements/jaw_clench
2022-02-26 15:16:01.278,,,,,,,,,,,,,,,,,,,,,,,,,,,,,,,,,,,,,,/muse/elements/blink
2022-02-26 15:16:01.532,,,,,,,,,,,,,,,,,,,,,,,,,,,,,,,,,,,,,,/muse/elements/blink
2022-02-26 15:16:01.866,0.7621248,0.4452341,1.1029459,1.2978547,0.65184486,0.48788586,0.41939202,0.9788472,0.6999576,0.7860189,0.44370013,0.75042427,1.2205299,0.71676075,0.663363,1.1581227,1.37244,0.6715569,0.5624749,0.7712443,844.94507,836.08057,838.49817,847.3626,850.989,-0.06195068359375,0.222900390625,0.94488525390625,-4.88983154296875,4.583282470703125,2.145843505859375,1,1.0,1.0,1.0,1.0,74.47
2022-02-26 15:16:02.876,0.7621248,0.47112143,0.72575116,0.48326546,0.65184486,0.5728859,0.1837175,-0.017223945,0.6999576,0.7903877,0.43122315,0.55555975,1.2205299,0.645724,0.5981742,1.0295296,1.37244,0.6598748,0.30170926,0.9952803,873.95605,854.61536,839.304,845.7509,832.8571,-0.0660400390625,0.2232666015625,0.97027587890625,-3.835601806640625,0.059814453125,-0.19439697265625,1,1.0,1.0,1.0,1.0,74.47
2022-02-26 15:16:03.899,0.8623458,0.21249615,0.48995006,0.93417037,0.7015967,-0.1261052,-0.009858091,0.62354326,0.8460404,0.1583482,0.30103487,1.0990337,1.4292084,0.491932,0.5489543,0.944307,1.3909695,0.55475235,0.42496467,1.0174695,913.0403,860.2564,863.47986,863.47986,1016.5934,-0.09033203125,0.24334716796875,0.94775390625,-5.8917236328125,0.10467529296875,10.086212158203125,1,1.0,1.0,1.0,1.0,74.33
2022-02-26 15:16:04.402,,,,,,,,,,,,,,,,,,,,,,,,,,,,,,,,,,,,,,/muse/elements/blink
2022-02-26 15:16:04.951,0.9150768,0.42012662,0.971429,1.1343746,0.78086734,0.21894138,0.085850686,0.8213788,0.7026731,0.075769946,0.5124443,1.0639824,1.4303535,0.6307118,0.71884376,0.795945,1.4251873,0.58466166,0.5713054,1.0273831,900.14655,852.6007,848.97437,844.1392,740.989,-0.0404052734375,0.259765625,0.95867919921875,-2.3626708984375,-4.007568359375,-4.65057373046875,1,1.0,1.0,1.0,1.0,74.33
2022-02-26 15:16:05.959,0.9150768,0.6629956,0.96910715,1.1095978,0.78086734,0.3568481,0.08161554,0.7640506,0.7026731,0.36932996,0.4866868,1.0938717,1.4303535,0.64560467,0.6546205,1.0984437,1.4251873,0.5336244,0.49662253,1.1336102,900.14655,849.3773,846.9597,843.73627,871.53845,-0.02996826171875,0.22052001953125,0.97808837890625,-2.385101318359375,2.093505859375,1.89910888671875,1,1.0,1.0,1.0,1.0,74.33
2022-02-26 15:16:06.975,0.9150768,0.5043045,0.7723147,1.2828406,0.78086734,0.10825343,0.2576207,1.345329,0.7026731,0.44547063,0.5596391,1.6902497,1.4303535,0.53449947,0.4988711,1.3367156,1.4251873,0.5318917,0.47817564,1.2784835,745.42126,865.4945,844.5421,749.85345,935.2015,-0.0501708984375,0.230224609375,0.973876953125,-3.0804443359375,7.8656005859375,0.635528564453125,1,1.0,1.0,1.0,1.0,74.33
2022-02-26 15:16:07.174,,,,,,,,,,,,,,,,,,,,,,,,,,,,,,,,,,,,,,/muse/elements/blink
2022-02-26 15:16:07.982,0.9150768,0.48378822,1.0936731,1.3998762,0.78086734,-0.016690522,0.6861514,1.5241413,0.7026731,0.15732966,0.55331653,1.6900892,1.4303535,0.5161425,0.56788003,1.4329941,1.4251873,0.5476589,0.43646693,1.3166615,834.0659,849.7802,844.94507,827.619,793.7729,-0.069091796875,0.248291015625,0.9649658203125,-2.87109375,2.968292236328125,1.15142822265625,1,1.0,1.0,1.0,1.0,74.33
2022-02-26 15:16:09.003,0.62098736,-0.10910547,0.6244885,0.8574003,0.5970789,-0.62892145,0.2771524,0.6320851,0.29140148,-0.027468458,0.40791574,0.5671822,1.1884686,0.5205533,0.49052718,0.76999456,1.3995811,0.6426729,0.3502865,0.91112036,844.5421,848.97437,847.76556,857.8388,898.1319,-0.20233154296875,0.22686767578125,0.9361572265625,-2.55706787109375,-7.245025634765625,6.6693115234375,1,1.0,1.0,1.0,1.0,74.33
2022-02-26 15:16:09.440,,,,,,,,,,,,,,,,,,,,,,,,,,,,,,,,,,,,,,/muse/elements/blink
2022-02-26 15:16:10.027,0.6011623,-0.038887948,0.18926667,0.81870383,0.52070206,0.25345397,-0.011732264,0.5908523,0.31319457,0.27791238,-0.16125448,0.63167614,1.2366887,0.6508555,0.6680828,0.755844,1.4053466,0.6760994,0.5927541,0.9468898,966.63007,855.82416,855.42126,884.43225,789.7436,-0.1339111328125,0.2293701171875,0.9671630859375,-2.70660400390625,3.09539794921875,-0.777587890625,1,1.0,1.0,1.0,1.0,74.33
2022-02-26 15:16:10.928,,,,,,,,,,,,,,,,,,,,,,,,,,,,,,,,,,,,,,/muse/elements/blink
2022-02-26 15:16:11.048,0.6151512,0.10934177,0.35123554,0.8433845,0.3514232,0.32761785,0.008420561,0.48039657,0.2697109,0.27107403,-0.072214626,0.60168594,1.3056209,0.4540863,0.5911649,0.65921795,1.4457339,0.5936248,0.47667807,1.050937,923.1135,856.63007,845.7509,809.4872,772.8205,-0.1168212890625,0.2210693359375,0.9871826171875,-2.91595458984375,7.37213134765625,-1.15142822265625,1,1.0,1.0,1.0,1.0,74.33
2022-02-26 15:16:12.073,0.6151512,-0.07240968,0.26222494,0.8433845,0.3514232,-0.28084835,-0.203254,0.48039657,0.2697109,0.08443922,0.21793751,0.60168594,1.3056209,0.5782671,0.55276483,0.65921795,1.4457339,0.87058353,0.38718387,1.050937,957.76556,831.2454,847.76556,874.7619,871.9414,-0.1160888671875,0.19390869140625,0.95849609375,-4.6356201171875,-2.0037841796875,0.037384033203125,1,2.0,1.0,1.0,2.0,74.33
2022-02-26 15:16:12.151,,,,,,,,,,,,,,,,,,,,,,,,,,,,,,,,,,,,,,/muse/elements/blink
2022-02-26 15:16:13.108,0.6151512,0.21327479,0.48657218,0.8433845,0.3514232,-0.28470853,-0.4929494,0.48039657,0.2697109,-0.012303108,-0.0048627025,0.60168594,1.3056209,0.6746774,0.56332844,0.65921795,1.4457339,0.7438347,0.3192218,1.050937,926.7399,834.0659,857.8388,851.39197,855.82416,-0.1065673828125,0.193603515625,0.9615478515625,-0.590667724609375,-1.398162841796875,-1.786956787109375,1,2.0,1.0,1.0,2.0,74.23
2022-02-26 15:16:14.124,0.6151512,0.21131533,0.53282464,0.84231216,0.3514232,-0.26777518,-0.22580248,0.90266377,0.2697109,0.10736152,-0.08982578,0.3509234,1.3056209,0.70590514,0.5258566,1.1781268,1.4457339,0.8498381,0.34019405,0.85115904,781.685,848.5714,860.2564,840.9158,885.2381,-0.1375732421875,0.23974609375,0.952880859375,-4.613189697265625,9.817047119140625,-1.62994384765625,1,1.0,1.0,1.0,1.0,74.23
2022-02-26 15:16:14.314,,,,,,,,,,,,,,,,,,,,,,,,,,,,,,,,,,,,,,/muse/elements/blink
2022-02-26 15:16:15.143,0.6151512,0.01991265,0.537398,0.8425439,0.3514232,-0.33459514,-0.18609537,0.6814965,0.2697109,0.12731759,0.10675242,0.4164209,1.3056209,0.63227224,0.47287318,1.0751808,1.4457339,0.6572794,0.5679642,0.86944824,771.2088,853.00366,862.27106,839.707,729.304,-0.08740234375,0.1748046875,0.93511962890625,-3.99261474609375,6.57958984375,1.293487548828125,1,1.0,1.0,1.0,1.0,74.23
2022-02-26 15:16:15.786,,,,,,,,,,,,,,,,,,,,,,,,,,,,,,,,,,,,,,/muse/elements/blink
2022-02-26 15:16:16.172,0.6151512,0.27880627,1.0986748,0.8217107,0.3514232,-0.312723,0.36352003,0.5390574,0.2697109,0.15291992,0.14513518,0.3968734,1.3056209,0.685323,0.76115644,1.0394853,1.4457339,0.51434624,0.49048707,0.88650006,765.16486,836.08057,849.3773,845.7509,744.61536,-0.0986328125,0.15118408203125,0.98687744140625,-3.170166015625,-1.951446533203125,3.072967529296875,1,1.0,1.0,1.0,1.0,74.23
2022-02-26 15:16:17.178,0.6151512,0.3008884,-0.42814443,0.8217107,0.3514232,-0.28927368,-0.59283316,0.5390574,0.2697109,-0.0023175138,-0.474488,0.3968734,1.3056209,0.7518737,0.4294227,1.0394853,1.4457339,0.5244644,0.16564244,0.88650006,802.6374,859.0476,842.52747,850.58606,836.8865,-0.13800048828125,0.1571044921875,0.976806640625,-3.177642822265625,1.607513427734375,-0.67291259765625,1,2.0,1.0,1.0,2.0,74.23
2022-02-26 15:16:17.643,,,,,,,,,,,,,,,,,,,,,,,,,,,,,,,,,,,,,,/muse/elements/blink
2022-02-26 15:16:18.200,0.19359738,-0.18070379,-0.31769654,0.6386866,0.35583436,-0.47348636,-0.34708387,0.63714844,0.71948886,-0.01383292,0.25152585,0.9346178,1.4735612,0.836049,0.4644248,1.1864948,1.4217702,0.5170191,0.39655763,1.031634,863.0769,848.1685,845.34796,859.0476,862.27106,-0.1610107421875,0.18487548828125,0.976318359375,-0.657958984375,10.7666015625,0.710296630859375,1,1.0,1.0,1.0,1.0,74.23
2022-02-26 15:16:19.217,0.19359738,-0.26358497,-0.29134017,0.6039143,0.35583436,-0.4711578,-0.023902174,0.63924724,0.71948886,0.119524196,0.24982886,0.8415534,1.4735612,0.75175625,0.6422751,1.1719173,1.4217702,0.48737913,0.48108658,1.036601,908.60803,837.28937,840.9158,838.9011,895.31134,-0.11212158203125,0.1907958984375,0.96978759765625,0.052337646484375,-3.60382080078125,2.58697509765625,1,1.0,1.0,1.0,1.0,74.23
2022-02-26 15:16:20.054,,,,,,,,,,,,,,,,,,,,,,,,,,,,,,,,,,,,,,/muse/elements/blink
2022-02-26 15:16:20.236,0.19359738,-0.4339635,0.27797177,0.5267638,0.35583436,-0.4960471,-0.14109574,0.5147731,0.71948886,0.013161698,0.12417814,0.61462396,1.4735612,0.507051,0.5476014,0.9153362,1.4217702,0.47968116,0.37868822,0.8236073,898.93774,857.03296,849.7802,835.6777,994.43225,-0.11962890625,0.1712646484375,0.98822021484375,-3.42437744140625,2.88604736328125,3.409423828125,1,1.0,1.0,1.0,1.0,74.23
2022-02-26 15:16:21.240,0.19359738,-0.43087506,0.99424875,0.5829514,0.35583436,-0.20541582,0.5647529,0.53924704,0.71948886,0.074904904,0.46662825,0.5843731,1.4735612,0.6840642,0.59954125,0.7743784,1.4217702,0.6749018,0.5890637,0.7896853,851.39197,854.61536,826.8132,833.663,909.011,-0.1300048828125,0.202392578125,0.97479248046875,-4.598236083984375,3.4393310546875,-1.143951416015625,1,1.0,1.0,1.0,1.0,74.23
2022-02-26 15:16:22.249,0.06840506,-0.25444072,0.2174407,0.67683536,-0.033814453,-0.3715231,-0.07873086,0.17169857,0.3673733,-0.046357077,0.2050353,0.54915845,1.0711908,0.5988456,0.438339,0.8444558,1.0550075,0.67727333,0.4036081,0.8399242,876.3736,853.4066,831.6484,857.8388,823.5897,-0.13177490234375,0.21820068359375,0.9522705078125,-7.97027587890625,-0.456085205078125,1.51031494140625,1,1.0,1.0,1.0,1.0,74.23
2022-02-26 15:16:23.277,0.8132604,-0.12085341,-0.03848281,0.69486684,0.6755898,-0.42530307,-0.8921666,0.6001027,0.85285723,-0.10554335,-0.1162595,0.88910425,1.2410918,0.5578022,0.54910225,0.8539074,1.2261373,0.4835313,0.47794843,0.9677339,906.99634,846.9597,845.34796,833.2601,828.4249,-0.15692138671875,0.21136474609375,0.985107421875,1.00189208984375,6.44500732421875,-1.136474609375,1,1.0,1.0,1.0,1.0,74.11
2022-02-26 15:16:24.288,0.65666896,-0.2533585,-0.094156586,0.5213003,0.7522278,-0.32678935,-0.63581795,0.6104757,1.0968183,0.028903484,-0.26835233,0.8152332,1.328938,0.7689843,0.65359753,0.9693942,1.3151988,0.46355966,0.48063064,1.0940973,873.1502,857.8388,850.989,843.73627,909.81683,-0.14794921875,0.2073974609375,0.9691162109375,-1.80938720703125,1.951446533203125,1.07666015625,1,1.0,1.0,1.0,1.0,74.11
2022-02-26 15:16:24.675,,,,,,,,,,,,,,,,,,,,,,,,,,,,,,,,,,,,,,/muse/elements/blink
2022-02-26 15:16:25.308,0.6072045,-0.09042439,0.16538927,0.6602758,0.5854894,-0.205281,0.050176185,0.4387922,1.0485861,0.008479944,0.10769551,0.68806565,1.2076825,0.7126511,0.64273167,0.9817097,1.2807982,0.39729983,0.45260516,1.102639,956.55676,861.06226,838.49817,856.63007,851.39197,-0.13702392578125,0.1866455078125,0.9564208984375,3.75335693359375,4.194488525390625,-1.472930908203125,1,1.0,1.0,1.0,1.0,74.11
2022-02-26 15:16:26.321,0.5530841,-0.060850717,0.22564684,0.8455972,0.3395439,-0.13581924,0.15405358,-0.37471431,0.88307035,0.0762558,0.211482,0.5329089,1.1741216,0.6633045,0.41412205,0.7998264,1.2954445,0.46040165,0.33650494,0.81418765,778.46155,853.8095,840.9158,844.94507,832.4542,-0.12078857421875,0.2005615234375,0.98016357421875,-2.624359130859375,-0.059814453125,4.119720458984375,1,1.0,1.0,1.0,1.0,74.11
2022-02-26 15:16:27.329,1.10241,-0.34828994,-0.18448895,0.8387033,0.4371809,-0.39446512,-0.44458395,0.5979938,0.64266896,-0.08823032,0.1981818,0.5894159,1.3333042,0.50613075,0.39240852,0.81354505,1.23129,0.39259273,0.21958588,1.0056533,787.326,834.4689,838.0952,849.3773,803.44324,-0.1414794921875,0.19287109375,0.98321533203125,-15.843353271484375,-2.6019287109375,3.22998046875,1,1.0,1.0,1.0,1.0,74.11
2022-02-26 15:16:28.347,0.37664732,-0.123112,0.003154669,0.58892316,0.6919221,-0.2869769,-0.2242437,0.5218607,0.7597492,-0.026953995,-0.16760996,0.72620916,1.3135351,0.66486704,0.5716668,0.91304755,1.53932,0.48371002,0.38144153,1.1246253,841.7216,808.68134,869.12085,881.2088,777.6557,-0.12518310546875,0.19189453125,0.9715576171875,-0.785064697265625,-1.15142822265625,2.908477783203125,1,1.0,1.0,1.0,1.0,74.11
2022-02-26 15:16:29.366,0.514404,0.49622393,0.6265815,0.13695744,0.7390031,-0.10955465,0.035404827,0.301674,0.7978614,0.124963254,-0.05168513,0.58204037,1.337627,0.8707293,0.43761173,0.9106278,1.4728448,0.49415043,0.44450346,1.0885754,772.01465,859.45056,830.84247,830.4396,829.2308,-0.10980224609375,0.2003173828125,0.97222900390625,-8.29925537109375,8.037567138671875,-3.028106689453125,1,1.0,1.0,1.0,1.0,74.11
2022-02-26 15:16:30.277,,,,,,,,,,,,,,,,,,,,,,,,,,,,,,,,,,,,,,/muse/elements/blink
2022-02-26 15:16:30.377,0.628529,0.46937504,0.56313306,0.4320866,0.76028556,-0.22589062,0.06593043,0.8039647,0.98337793,0.13631,0.31795815,0.9497385,1.2211629,0.70593506,0.43569547,0.95133084,1.2114947,0.47537282,0.39502862,0.86684585,956.1539,835.2747,986.77655,921.0989,904.17584,-0.0428466796875,0.26861572265625,0.97528076171875,-3.805694580078125,-8.92730712890625,-2.145843505859375,1,1.0,1.0,1.0,1.0,74.11
2022-02-26 15:16:31.400,0.628529,0.7035499,-0.1480931,0.4182375,0.76028556,0.17737894,-0.04080732,0.82389456,0.98337793,0.013380734,0.27236924,0.9483982,1.2211629,0.61752003,0.5522572,0.98738796,1.2114947,0.5480477,0.3240902,0.8452256,787.326,862.27106,853.8095,867.1062,956.1539,0.02789306640625,0.1978759765625,0.97271728515625,0.231781005859375,-8.2244873046875,-3.94775390625,1,1.0,1.0,1.0,1.0,74.11
2022-02-26 15:16:32.249,,,,,,,,,,,,,,,,,,,,,,,,,,,,,,,,,,,,,,/muse/elements/blink
2022-02-26 15:16:32.416,1.3044723,0.08351302,1.39175,1.4206284,0.9992913,-0.24284407,0.74991584,1.5018413,1.0249108,0.16415368,0.25291842,1.0424789,1.138391,0.594119,0.63479704,1.0926406,1.5584879,0.36607057,0.59146893,1.003984,814.3223,856.2271,820.3663,854.61536,845.34796,-0.149658203125,0.19561767578125,0.9560546875,-3.7982177734375,-0.5682373046875,1.854248046875,1,1.0,1.0,1.0,1.0,74.11
2022-02-26 15:16:33.438,1.2818577,0.052265875,1.1488876,1.4224254,1.0116347,0.03822347,0.40937936,1.4298865,1.0249108,-0.021061247,0.33847472,0.9365009,1.1865892,0.61013687,0.63385415,1.1284015,1.554396,0.81369036,0.42629308,1.0364686,796.5934,850.18317,828.8278,836.4835,875.9707,-0.17913818359375,0.20855712890625,0.958740234375,-5.764617919921875,-3.66363525390625,5.689849853515625,1,1.0,1.0,1.0,1.0,74.02
2022-02-26 15:16:34.462,1.2818577,-0.14306471,0.49047703,0.9216834,1.0116347,-0.03254837,-0.23438182,0.76685476,1.0249108,0.1619688,0.12520306,0.796757,1.1865892,0.9004729,0.7356249,0.9971224,1.554396,1.0793564,0.47785902,0.9501292,950.10986,834.87177,835.6777,898.93774,824.3956,-0.1539306640625,0.16790771484375,0.93548583984375,-0.246734619140625,-10.056304931640625,-10.026397705078125,1,1.0,1.0,1.0,1.0,74.02
2022-02-26 15:16:34.611,,,,,,,,,,,,,,,,,,,,,,,,,,,,,,,,,,,,,,/muse/elements/blink
2022-02-26 15:16:35.477,1.2818577,0.19814195,0.36512837,0.83715117,1.0116347,-0.22363749,0.26916468,0.58157,1.0249108,0.18334529,0.5546622,0.71872085,1.1865892,0.83404136,0.5145868,0.94270486,1.554396,0.9761032,0.5671961,0.93389004,901.3553,837.28937,849.7802,866.30035,917.47253,-0.1502685546875,0.18707275390625,0.96392822265625,-2.82623291015625,2.609405517578125,2.10845947265625,1,1.0,1.0,1.0,1.0,74.02
2022-02-26 15:16:36.503,1.2818577,0.64706594,0.89807993,1.3920858,1.0116347,0.1553176,0.39112768,0.93589586,1.0249108,0.3809406,0.4703331,0.8916384,1.1865892,0.5877988,0.38591114,1.2335548,1.554396,0.70180607,0.5526783,1.0134724,918.2784,854.61536,825.6044,840.9158,807.47253,-0.1671142578125,0.20263671875,0.98223876953125,-6.639404296875,4.38140869140625,1.951446533203125,1,1.0,1.0,1.0,1.0,74.02
2022-02-26 15:16:37.510,1.0325024,0.48608708,0.3262834,0.870834,0.9029565,-0.03855749,0.14637862,0.79000986,0.47896186,0.105960496,0.32054096,0.60974413,1.3906164,0.607926,0.4799305,0.9916124,1.5103085,0.5821859,0.48467642,0.935886,922.3077,838.0952,863.47986,899.34064,1007.326,-0.17822265625,0.10223388671875,0.9576416015625,-17.63031005859375,-8.321685791015625,21.99676513671875,1,1.0,1.0,1.0,1.0,74.02
2022-02-26 15:16:38.518,1.0325024,-0.0055106976,0.092829056,0.83628774,0.9029565,-0.088853784,0.03488935,0.67857873,0.47896186,0.6259157,0.5107968,0.42987582,1.3906164,0.82021886,0.5629127,0.9939071,1.5103085,0.61780715,0.37100857,0.9278713,803.8461,838.0952,853.8095,850.58606,820.3663,-0.17510986328125,0.1767578125,0.9671630859375,-2.25799560546875,-8.03009033203125,7.185211181640625,1,1.0,1.0,1.0,1.0,74.02
2022-02-26 15:16:39.535,1.0325024,-0.071136154,0.44700593,0.70306456,0.9029565,-0.19664292,0.15164688,0.40535864,0.47896186,0.61812073,0.45429114,0.22699746,1.3906164,0.81686264,0.56411576,1.0098683,1.5103085,0.6192516,0.44733894,0.9034773,894.10254,846.9597,843.3333,841.31866,868.71796,-0.13739013671875,0.22259521484375,0.974609375,-1.323394775390625,3.0804443359375,4.598236083984375,1,1.0,1.0,1.0,1.0,74.02
2022-02-26 15:16:40.555,0.590592,-0.098661944,0.2617318,0.86817884,0.5900406,-0.40779594,-0.24445902,0.8137154,0.8949543,-0.018720152,0.048801087,0.9567978,1.3144177,0.90425384,0.53316265,0.8572325,1.4974914,0.6454258,0.54957366,1.0130681,813.91943,851.39197,839.304,848.97437,835.6777,-0.11962890625,0.208984375,0.9598388671875,-2.175750732421875,-1.114044189453125,0.844879150390625,1,1.0,1.0,1.0,1.0,74.02
2022-02-26 15:16:41.561,0.8368363,-0.09822078,0.10241786,1.0115439,0.5495257,-0.5742061,-0.16835913,0.9872624,0.87520933,-0.027991312,0.30308378,0.9089339,1.2843976,0.7446851,0.46970025,0.9492212,1.474101,0.4743068,0.23718964,0.9720762,813.91943,852.6007,846.9597,841.31866,802.6374,-0.1322021484375,0.19769287109375,0.96588134765625,-2.355194091796875,1.7645263671875,2.968292236328125,1,1.0,1.0,1.0,1.0,74.02
2022-02-26 15:16:42.581,1.0347476,-0.030707806,-0.07108565,1.2347463,0.56637263,-0.70407474,-0.2287486,1.0734032,0.5811957,-0.015143885,0.4151081,0.8143001,1.3830553,0.72999585,0.38647786,1.0157255,1.5600886,0.50687414,0.13395645,0.8218068,794.9817,849.7802,856.2271,841.31866,858.6447,-0.12872314453125,0.19171142578125,0.96429443359375,-1.7047119140625,2.878570556640625,2.07855224609375,1,1.0,1.0,1.0,1.0,74.02
2022-02-26 15:16:43.600,0.32085887,-0.030822234,-0.259707,0.5915653,0.61768705,-0.56686753,-0.23970546,0.5175487,0.7113194,0.14225218,0.072404616,0.55547214,1.3085479,0.6990144,0.24089333,0.99450225,1.4462641,0.64609563,0.16164477,0.7695808,849.3773,861.8681,833.663,828.022,828.8278,-0.116943359375,0.190673828125,0.96356201171875,-3.33465576171875,-2.75146484375,-1.1065673828125,1,1.0,1.0,1.0,1.0,73.88
2022-02-26 15:16:44.609,0.6480179,-0.3605821,-0.1740638,0.94195074,0.45175138,-0.6662998,-0.33344242,0.5224455,0.834182,-0.1168846,-0.095490515,0.7052486,1.2001797,0.6411001,0.21596384,0.70433646,1.428185,0.5845519,0.1496692,0.7557046,779.67035,844.5421,842.9304,884.43225,775.64105,-0.13104248046875,0.17376708984375,0.971435546875,-1.016845703125,3.63372802734375,3.15521240234375,1,1.0,1.0,1.0,1.0,73.88
2022-02-26 15:16:45.612,0.29698202,-0.0020517344,-0.06032207,1.0753795,0.5486957,-0.08238068,-0.21930775,0.62971497,0.9377592,0.14942235,0.0213227,0.95454,1.2691435,0.7018975,0.16604318,0.76506746,1.4989088,0.63877875,0.18460856,0.96999264,767.5824,867.50916,830.84247,850.58606,801.8315,-0.1358642578125,0.23486328125,0.96759033203125,-3.357086181640625,-1.203765869140625,-3.132781982421875,1,1.0,1.0,1.0,1.0,73.88
2022-02-26 15:16:46.616,0.14089732,0.4253516,0.48986766,1.2187746,0.6738801,0.32586792,0.1272482,0.92491335,1.0804508,0.3515847,0.2584849,0.96894956,1.2922951,0.7650738,0.32983968,1.2414837,1.4078131,0.61575127,0.30912665,1.0854229,893.2967,865.4945,848.97437,847.76556,867.1062,-0.103271484375,0.203369140625,0.97186279296875,-1.15142822265625,5.443115234375,0.0897216796875,1,1.0,1.0,1.0,1.0,73.88
2022-02-26 15:16:47.612,,,,,,,,,,,,,,,,,,,,,,,,,,,,,,,,,,,,,,/muse/elements/blink
2022-02-26 15:16:47.637,0.66277313,-0.056232486,0.250093,1.292896,0.29391533,-0.032410704,-0.30141032,1.5884894,1.0043551,0.51101446,0.18890764,1.7647519,1.1698425,0.8885767,0.5673779,1.1673723,1.2984307,0.7436903,0.5645304,0.98882836,814.7253,831.6484,858.24176,842.9304,724.4689,-0.14447021484375,0.20037841796875,0.9847412109375,0.530853271484375,1.00189208984375,-0.2392578125,1,1.0,1.0,1.0,1.0,73.88
2022-02-26 15:16:48.664,0.6611579,0.6405747,0.46939266,1.3327502,0.29604474,0.5863805,0.13821043,1.6206325,0.9843573,0.817581,0.4845159,1.7352647,1.1678135,0.88350517,0.58845246,1.1263117,1.3732079,0.34555128,0.5498729,1.0016673,813.5165,849.7802,857.8388,838.49817,795.78754,-0.143798828125,0.193603515625,0.9627685546875,-2.340240478515625,0.0299072265625,-0.142059326171875,1,1.0,1.0,1.0,1.0,73.88
2022-02-26 15:16:49.217,,,,,,,,,,,,,,,,,,,,,,,,,,,,,,,,,,,,,,/muse/elements/blink
2022-02-26 15:16:49.684,0.6611579,0.09627749,0.27219287,1.3327502,0.29604474,-0.07972363,-0.14641203,1.6206325,0.9843573,0.30987096,0.21156959,1.7352647,1.1678135,0.83955836,0.42794946,1.1263117,1.3732079,0.36180913,0.64878017,1.0016673,779.2674,845.7509,844.94507,829.6337,755.89746,-0.1007080078125,0.162109375,1.005859375,-0.70281982421875,2.385101318359375,-3.058013916015625,1,1.0,1.0,1.0,1.0,73.88
2022-02-26 15:16:50.717,0.6611579,-0.20177802,-0.08106843,1.3327502,0.29604474,-0.35580656,-0.56680197,1.6206325,0.9843573,-0.07474017,0.13057837,1.7352647,1.1678135,0.72736716,0.6061874,1.1263117,1.3732079,0.742587,0.7195206,1.0016673,889.67035,860.65936,841.7216,857.03296,900.54944,-0.17840576171875,0.17889404296875,0.97393798828125,-1.413116455078125,4.119720458984375,0.31402587890625,1,2.0,1.0,1.0,2.0,73.88
2022-02-26 15:16:51.740,0.6611579,-0.29808295,-0.29674172,1.4135456,0.29604474,-0.27521634,-0.3568772,1.3244047,0.9843573,0.121164635,0.3105604,1.3845624,1.1678135,0.6825024,0.49108386,0.6896903,1.3732079,0.82757604,0.4227387,0.99162805,869.5238,861.06226,847.76556,836.08057,886.4469,-0.12322998046875,0.15093994140625,0.96966552734375,-3.78326416015625,1.338348388671875,9.07684326171875,1,1.0,1.0,1.0,1.0,73.88
2022-02-26 15:16:52.490,,,,,,,,,,,,,,,,,,,,,,,,,,,,,,,,,,,,,,/muse/elements/blink
