TimeStamp,Delta_TP9,Delta_AF7,Delta_AF8,Delta_TP10,Theta_TP9,Theta_AF7,Theta_AF8,Theta_TP10,Alpha_TP9,Alpha_AF7,Alpha_AF8,Alpha_TP10,Beta_TP9,Beta_AF7,Beta_AF8,Beta_TP10,Gamma_TP9,Gamma_AF7,Gamma_AF8,Gamma_TP10,RAW_TP9,RAW_AF7,RAW_AF8,RAW_TP10,AUX_RIGHT,Accelerometer_X,Accelerometer_Y,Accelerometer_Z,Gyro_X,Gyro_Y,Gyro_Z,HeadBandOn,HSI_TP9,HSI_AF7,HSI_AF8,HSI_TP10,Battery,Elements
2022-04-03 18:08:09.477,0.56259,0.9012675,0.877298,0.91828644,0.15587778,0.16243431,0.33796477,0.39176118,0.5150179,-0.044253618,0.23295435,0.7146935,0.44163233,0.12802047,0.16504936,0.46900022,0.5188744,-0.15925284,-0.13021776,0.4106444,836.4835,857.4359,842.52747,841.7216,720.0366,-0.00689697265625,0.1767578125,0.98309326171875,-1.92901611328125,1.308441162109375,0.426177978515625,1,1.0,1.0,1.0,1.0,67.16
2022-04-03 18:08:10.498,0.56259,1.0223812,0.8546524,0.6694252,0.15587778,0.39376912,0.21021327,0.42439067,0.5150179,0.3702651,0.052423622,0.6775604,0.44163233,-0.014464859,-0.07596087,0.5074421,0.5188744,-0.109403916,-0.043353815,0.28312427,866.7033,850.989,845.7509,922.71063,1056.8865,-0.02130126953125,0.1710205078125,0.98138427734375,-1.8243408203125,3.3197021484375,2.093505859375,1,1.0,1.0,1.0,1.0,67.16
2022-04-03 18:08:11.529,0.56259,1.1022215,0.9405364,0.7831316,0.15587778,0.48097983,0.2900075,0.528888,0.5150179,0.35635895,-0.014038148,0.6313695,0.44163233,0.01530063,0.30064157,0.46543127,0.5188744,-0.115931205,0.29047903,0.4328584,871.9414,846.1539,851.39197,908.20514,1077.8389,-0.03204345703125,0.18316650390625,0.98223876953125,-1.9140625,1.495361328125,0.85235595703125,1,1.0,1.0,1.0,1.0,67.16
2022-04-03 18:08:11.984,,,,,,,,,,,,,,,,,,,,,,,,,,,,,,,,,,,,,,/muse/elements/blink
2022-04-03 18:08:12.324,,,,,,,,,,,,,,,,,,,,,,,,,,,,,,,,,,,,,,/muse/elements/blink
2022-04-03 18:08:12.553,-0.07825711,0.4104187,0.35113567,-0.19118057,-0.009912593,0.14668378,-0.0033169577,-0.097407945,0.7692186,-0.15544268,0.11356288,0.39366496,0.3288952,0.08964226,0.43416137,0.34486026,0.13681865,-0.20236982,0.22649439,0.48701543,858.6447,855.0183,844.94507,892.0879,949.304,-0.0660400390625,0.15478515625,0.98773193359375,-0.9869384765625,-5.495452880859375,5.084228515625,1,1.0,1.0,1.0,1.0,67.16
2022-04-03 18:08:13.571,-0.08285478,0.65291405,0.6022525,0.74900085,-0.2906987,0.37656844,0.23522688,0.85450184,0.54316175,-0.18192714,0.109125786,0.80215496,0.30026892,0.22302136,0.2505118,0.4561161,0.028449543,0.1514149,0.07821085,0.45548558,868.315,846.9597,843.73627,860.2564,857.4359,-0.0567626953125,0.16400146484375,0.99444580078125,-3.222503662109375,6.063690185546875,-4.29168701171875,1,1.0,1.0,1.0,1.0,67.16
2022-04-03 18:08:14.574,-0.08285478,0.19812639,0.4405139,1.2108785,-0.2906987,0.13708866,-0.06135975,0.9554948,0.54316175,0.35211143,0.16304645,0.99560905,0.30026892,0.3841888,0.10843822,0.8240289,0.028449543,0.42163473,0.20596968,0.5731612,846.9597,869.5238,865.89746,938.4249,780.07324,-0.23419189453125,0.14923095703125,0.9718017578125,-3.3795166015625,15.394744873046875,-3.790740966796875,1,1.0,1.0,1.0,1.0,67.16
2022-04-03 18:08:15.177,,,,,,,,,,,,,,,,,,,,,,,,,,,,,,,,,,,,,,/muse/elements/blink
2022-04-03 18:08:15.597,-0.08285478,0.44740433,0.7200133,1.4485238,-0.2906987,0.17162544,0.4063635,0.9361079,0.54316175,0.33820614,0.38595903,0.9845682,0.30026892,0.66333497,0.55377805,0.94557256,0.028449543,0.5806416,0.7324143,0.7030691,952.1245,853.00366,879.59705,870.32965,542.74725,-0.4310302734375,0.10113525390625,0.8525390625,-0.49346923828125,6.781463623046875,1.95892333984375,1,1.0,1.0,1.0,1.0,67.11
2022-04-03 18:08:16.586,,,,,,,,,,,,,,,,,,,,,,,,,,,,,,,,,,,,,,/muse/elements/blink
2022-04-03 18:08:16.617,-0.08285478,0.6924418,0.93797565,1.4485238,-0.2906987,0.29074854,0.69351757,0.9361079,0.54316175,0.19244404,0.36577013,0.9845682,0.30026892,0.6548254,0.6928697,0.94557256,0.028449543,0.49415216,0.9375179,0.7030691,911.4286,1105.238,1171.3187,936.8132,846.9597,-0.27362060546875,0.103271484375,0.93072509765625,2.22808837890625,-28.21746826171875,0.3289794921875,1,1.0,1.0,1.0,1.0,67.11
2022-04-03 18:08:17.032,,,,,,,,,,,,,,,,,,,,,,,,,,,,,,,,,,,,,,/muse/elements/blink
2022-04-03 18:08:17.642,-0.08285478,0.8121502,1.007824,1.4485238,-0.2906987,0.38704816,0.8656802,0.9361079,0.54316175,0.16388653,0.20962957,0.9845682,0.30026892,0.578692,0.60964614,0.94557256,0.028449543,0.55331355,0.53652567,0.7030691,950.10986,956.9597,878.7912,961.79486,989.59705,-0.34130859375,0.10418701171875,0.91961669921875,8.680572509765625,14.153594970703125,-27.215576171875,1,2.0,1.0,1.0,2.0,67.11
2022-04-03 18:08:18.662,-0.08285478,0.8121502,1.007824,1.4485238,-0.2906987,0.38704816,0.8656802,0.9361079,0.54316175,0.16388653,0.20962957,0.9845682,0.30026892,0.578692,0.60964614,0.94557256,0.028449543,0.55331355,0.53652567,0.7030691,914.2491,906.1905,851.39197,867.1062,898.93774,-0.3563232421875,0.17840576171875,0.9085693359375,-4.0972900390625,-0.186920166015625,-1.79443359375,1,2.0,1.0,1.0,2.0,67.11
2022-04-03 18:08:19.671,0.6138471,0.12218042,-0.10468355,1.0266492,0.52158403,-0.24093546,-0.5214131,0.47214445,0.91455895,0.09153993,-0.34644365,1.0178155,1.0646913,0.23836862,0.107234634,1.305971,1.1023048,0.34049064,0.004195567,1.132627,810.293,895.31134,850.18317,850.989,837.6923,-0.34405517578125,0.17742919921875,0.90478515625,-3.581390380859375,0.291595458984375,3.970184326171875,1,1.0,1.0,1.0,1.0,67.11
2022-04-03 18:08:20.069,,,,,,,,,,,,,,,,,,,,,,,,,,,,,,,,,,,,,,/muse/elements/blink
2022-04-03 18:08:20.492,,,,,,,,,,,,,,,,,,,,,,,,,,,,,,,,,,,,,,/muse/elements/blink
2022-04-03 18:08:20.687,0.50996155,0.70370513,-0.18970844,1.0667332,0.40128064,-0.084480725,-0.48122364,0.43776155,0.837051,0.09537615,-0.19756816,1.0047436,1.0942628,0.10487618,0.14075942,1.3083931,1.0648057,0.09220266,0.078739114,1.1372645,1650.0,1116.1172,1178.9744,874.35895,1081.4652,0.08709716796875,0.03350830078125,1.06005859375,-5.36834716796875,-6.69921875,-9.8394775390625,1,1.0,1.0,1.0,1.0,67.11
2022-04-03 18:08:21.271,,,,,,,,,,,,,,,,,,,,,,,,,,,,,,,,,,,,,,/muse/elements/blink
2022-04-03 18:08:21.702,0.50996155,1.0503174,0.050406657,1.0667332,0.40128064,0.013207822,-0.49090815,0.43776155,0.837051,-0.039015517,-0.24158093,1.0047436,1.0942628,0.063631944,0.14215927,1.3083931,1.0648057,0.072068274,0.14536016,1.1372645,633.8095,719.2308,816.7399,815.9341,745.82416,-0.0728759765625,0.07135009765625,0.9908447265625,-4.844970703125,13.824615478515625,-1.4654541015625,1,1.0,1.0,1.0,1.0,67.11
2022-04-03 18:08:22.711,0.50996155,1.0503174,0.050406657,1.0667332,0.40128064,0.013207822,-0.49090815,0.43776155,0.837051,-0.039015517,-0.24158093,1.0047436,1.0942628,0.063631944,0.14215927,1.3083931,1.0648057,0.072068274,0.14536016,1.1372645,699.89014,1650.0,932.7839,823.1868,996.8498,-0.19561767578125,0.0260009765625,0.9666748046875,4.403839111328125,5.869293212890625,-0.179443359375,1,2.0,1.0,1.0,2.0,67.11
2022-04-03 18:08:22.783,,,,,,,,,,,,,,,,,,,,,,,,,,,,,,,,,,,,,,/muse/elements/blink
2022-04-03 18:08:23.586,,,,,,,,,,,,,,,,,,,,,,,,,,,,,,,,,,,,,,/muse/elements/blink
2022-04-03 18:08:23.730,0.50996155,1.0503174,0.050406657,1.0667332,0.40128064,0.013207822,-0.49090815,0.43776155,0.837051,-0.039015517,-0.24158093,1.0047436,1.0942628,0.063631944,0.14215927,1.3083931,1.0648057,0.072068274,0.14536016,1.1372645,758.315,812.71063,801.8315,864.2857,949.707,-0.3067626953125,0.17095947265625,0.9244384765625,8.889923095703125,18.774261474609375,7.10296630859375,1,2.0,4.0,1.0,2.0,67.11
2022-04-03 18:08:23.817,,,,,,,,,,,,,,,,,,,,,,,,,,,,,,,,,,,,,,/muse/elements/blink
2022-04-03 18:08:24.747,0.50996155,1.0503174,0.050406657,1.0667332,0.40128064,0.013207822,-0.49090815,0.43776155,0.837051,-0.039015517,-0.24158093,1.0047436,1.0942628,0.063631944,0.14215927,1.3083931,1.0648057,0.072068274,0.14536016,1.1372645,796.99634,847.76556,812.3077,863.8828,736.9597,-0.353759765625,0.331298828125,0.86834716796875,-2.923431396484375,5.62255859375,1.7645263671875,1,2.0,1.0,1.0,2.0,67.11
2022-04-03 18:08:25.649,,,,,,,,,,,,,,,,,,,,,,,,,,,,,,,,,,,,,,/muse/elements/blink
2022-04-03 18:08:25.780,0.50996155,1.0011111,0.80890244,1.0667332,0.40128064,-0.06476089,0.16378587,0.43776155,0.837051,-0.018430611,0.23451948,1.0047436,1.0942628,0.18421702,-0.18980737,1.3083931,1.0648057,0.023393067,-0.049333006,1.1372645,827.2161,849.7802,809.89014,922.71063,1036.7399,-0.253173828125,0.21783447265625,0.9503173828125,-25.742645263671875,-39.784088134765625,35.0213623046875,1,2.0,1.0,1.0,2.0,67.09
2022-04-03 18:08:26.798,0.50996155,1.131881,0.9489452,1.0667332,0.40128064,0.34666735,0.32228234,0.43776155,0.837051,-0.10831085,0.10181285,1.0047436,1.0942628,0.098980665,-0.109949894,1.3083931,1.0648057,0.0127222305,-0.054605417,1.1372645,757.50916,834.4689,1156.8132,840.10986,725.2747,0.32757568359375,0.0518798828125,0.93292236328125,-5.00946044921875,-2.10845947265625,-23.40240478515625,1,2.0,1.0,1.0,2.0,67.09
2022-04-03 18:08:27.756,,,,,,,,,,,,,,,,,,,,,,,,,,,,,,,,,,,,,,/muse/elements/blink
2022-04-03 18:08:27.804,1.4881183,0.9058252,1.0969343,1.038364,1.3495096,0.1685148,0.394368,0.74717283,1.448349,0.47538632,-0.09650721,0.8999801,1.3168459,0.17001142,-0.025292195,0.92108995,0.9714649,0.0024784675,-0.15555194,0.7552618,822.381,890.07324,862.27106,860.65936,932.7839,0.35357666015625,0.0927734375,0.91729736328125,-1.86920166015625,0.25421142578125,5.27862548828125,1,1.0,1.0,1.0,1.0,67.09
2022-04-03 18:08:28.822,1.5028106,0.5568302,1.0969343,1.038364,1.3500677,-0.4062234,0.394368,0.74717283,1.448349,0.45356163,-0.09650721,0.8999801,1.3720797,0.32579488,-0.025292195,0.92108995,0.97976524,0.19273047,-0.15555194,0.7552618,823.9927,840.10986,732.1245,810.696,907.3993,0.18499755859375,0.2247314453125,0.94805908203125,-7.05810546875,0.276641845703125,-97.22091674804688,1,1.0,1.0,1.0,1.0,67.09
2022-04-03 18:08:29.832,1.5028106,0.46462962,1.0969343,1.2905178,1.3500677,0.30821973,0.394368,0.7362444,1.448349,0.61927456,-0.09650721,0.5957453,1.3720797,0.41453496,-0.025292195,0.8336602,0.97976524,0.0447422,-0.15555194,0.7857688,730.10986,864.68866,784.10254,720.0366,591.0989,0.15594482421875,0.15802001953125,0.97259521484375,-5.2935791015625,52.11334228515625,77.72140502929688,1,1.0,1.0,1.0,1.0,67.09
2022-04-03 18:08:30.050,,,,,,,,,,,,,,,,,,,,,,,,,,,,,,,,,,,,,,/muse/elements/blink
2022-04-03 18:08:30.856,1.5028106,0.803233,1.0969343,1.993659,1.3500677,0.41623113,0.394368,1.8855585,1.448349,0.6895847,-0.09650721,1.4109348,1.3720797,0.44662887,-0.025292195,1.086618,0.97976524,0.020939395,-0.15555194,0.83893436,817.1429,845.34796,792.5641,876.3736,1106.4469,-0.20062255859375,0.3165283203125,0.93524169921875,-6.23565673828125,0.40374755859375,2.833709716796875,1,1.0,1.0,1.0,1.0,67.09
2022-04-03 18:08:31.875,1.5028106,0.7681488,1.0969343,1.4156194,1.3500677,0.45266387,0.394368,1.3103912,1.448349,0.74222857,-0.09650721,1.3145624,1.3720797,0.3030113,-0.025292195,1.1346645,0.97976524,0.083661936,-0.15555194,1.1149436,856.63007,843.3333,828.022,911.02563,962.6007,-0.23382568359375,0.22216796875,0.9681396484375,-0.530853271484375,3.491668701171875,-4.74029541015625,1,1.0,1.0,1.0,1.0,67.09
2022-04-03 18:08:32.885,1.5028106,0.27093956,0.7181765,1.0827049,1.3500677,-0.15745504,-0.22605105,0.60727644,1.448349,0.2073077,0.22928199,1.0110328,1.3720797,0.20859317,0.22981502,0.97184384,0.97976524,0.06613596,0.39203867,0.9546128,868.315,855.82416,845.7509,867.50916,848.1685,-0.07208251953125,0.20623779296875,0.976318359375,-1.435546875,-0.142059326171875,2.75146484375,1,1.0,1.0,1.0,1.0,67.09
2022-04-03 18:08:33.935,1.5028106,0.27117547,0.7079679,1.1217483,1.3500677,0.065635666,0.04222347,0.72143567,1.448349,0.3420835,0.6399672,1.1469837,1.3720797,0.21685068,0.32059747,0.99877053,0.97976524,0.107390955,0.2327212,0.9448894,872.74725,870.7326,866.30035,838.9011,757.1062,0.05377197265625,0.1015625,0.9837646484375,6.34033203125,-2.79632568359375,-0.478515625,1,1.0,1.0,1.0,1.0,67.09
2022-04-03 18:08:34.880,,,,,,,,,,,,,,,,,,,,,,,,,,,,,,,,,,,,,,/muse/elements/blink
2022-04-03 18:08:34.937,1.5028106,0.98468024,0.94437426,0.70912737,1.3500677,0.34354115,0.3176579,0.7255415,1.448349,0.46268666,0.52791685,1.1002413,1.3720797,0.15312594,0.27520612,0.9476667,0.97976524,0.11834669,0.23348127,0.98042053,833.2601,851.39197,848.97437,919.89014,1012.96704,-0.16888427734375,-0.00457763671875,0.97314453125,-6.08612060546875,17.398529052734375,-8.97216796875,1,1.0,1.0,1.0,1.0,67.09
2022-04-03 18:08:35.974,1.5028106,1.0741963,1.3988488,0.70912737,1.3500677,0.4204934,0.75414044,0.7255415,1.448349,0.096504785,0.23084676,1.1002413,1.3720797,0.15937357,0.13333128,0.9476667,0.97976524,0.03963468,0.29782295,0.98042053,850.989,862.27106,857.8388,797.3993,660.0,-0.122314453125,0.0887451171875,0.9896240234375,7.716064453125,-1.233673095703125,19.60418701171875,1,1.0,1.0,1.0,1.0,67.05
2022-04-03 18:08:36.269,,,,,,,,,,,,,,,,,,,,,,,,,,,,,,,,,,,,,,/muse/elements/blink
2022-04-03 18:08:36.992,1.5028106,0.9092669,1.4810929,0.70912737,1.3500677,0.0828809,0.7914911,0.7255415,1.448349,0.18138243,0.14178465,1.1002413,1.3720797,0.31450728,0.14893582,0.9476667,0.97976524,0.0056769787,0.2988349,0.98042053,825.6044,849.7802,844.5421,855.0183,990.80585,-0.07586669921875,0.197021484375,0.9801025390625,-0.04486083984375,-2.55706787109375,2.878570556640625,1,2.0,1.0,1.0,2.0,67.05
2022-04-03 18:08:37.996,1.5028106,0.9446298,1.4810929,0.70912737,1.3500677,0.39492786,0.7914911,0.7255415,1.448349,0.36647508,0.14178465,1.1002413,1.3720797,0.3276251,0.14893582,0.9476667,0.97976524,0.06834557,0.2988349,0.98042053,829.6337,853.8095,848.97437,802.23444,638.6447,-0.193359375,0.05078125,0.9801025390625,-11.88812255859375,15.4620361328125,-6.362762451171875,1,2.0,1.0,1.0,2.0,67.05
2022-04-03 18:08:38.549,,,,,,,,,,,,,,,,,,,,,,,,,,,,,,,,,,,,,,/muse/elements/jaw_clench
2022-04-03 18:08:38.888,,,,,,,,,,,,,,,,,,,,,,,,,,,,,,,,,,,,,,/muse/elements/jaw_clench
2022-04-03 18:08:39.013,1.5028106,0.83120894,0.47796625,0.70912737,1.3500677,0.40075237,-0.06812651,0.7255415,1.448349,0.5371836,-0.07836911,1.1002413,1.3720797,0.3706559,0.23853241,0.9476667,0.97976524,0.31175706,0.11640526,0.98042053,853.8095,860.65936,850.989,890.07324,1023.8461,-0.05084228515625,0.179443359375,0.9783935546875,-3.8580322265625,0.396270751953125,1.203765869140625,1,2.0,1.0,1.0,2.0,67.05
2022-04-03 18:08:40.039,1.5028106,0.586828,0.21996193,0.70912737,1.3500677,0.25851923,-0.062314898,0.7255415,1.448349,0.5330348,0.10553335,1.1002413,1.3720797,0.24336955,0.14297795,0.9476667,0.97976524,0.23333324,-0.23709457,0.98042053,842.52747,848.97437,836.8865,882.8205,912.23444,-0.2811279296875,0.0797119140625,0.95489501953125,-0.979461669921875,3.72344970703125,-6.542205810546875,1,2.0,1.0,1.0,2.0,67.05
2022-04-03 18:08:41.061,1.5028106,1.0203582,1.0459872,0.70912737,1.3500677,0.67230254,0.25175244,0.7255415,1.448349,0.3669611,0.32602286,1.1002413,1.3720797,-0.007566321,0.07269492,0.9476667,0.97976524,-0.20198195,-0.27806202,0.98042053,823.1868,844.94507,836.08057,883.22345,938.8278,-0.2213134765625,0.20892333984375,0.9603271484375,-3.431854248046875,-2.67669677734375,9.79461669921875,1,2.0,1.0,1.0,2.0,67.05
2022-04-03 18:08:42.082,1.5028106,1.0022541,1.1617666,0.70912737,1.3500677,0.89270777,0.52646095,0.7255415,1.448349,0.66880447,0.72417235,1.1002413,1.3720797,0.28105554,0.27062488,0.9476667,0.97976524,-0.030207,-0.08315373,0.98042053,855.0183,857.8388,846.55676,889.2674,1093.1501,-0.13720703125,0.30670166015625,0.97869873046875,-18.235931396484375,-18.908843994140625,56.56951904296875,1,2.0,1.0,1.0,2.0,67.05
2022-04-03 18:08:42.086,,,,,,,,,,,,,,,,,,,,,,,,,,,,,,,,,,,,,,/muse/elements/blink
2022-04-03 18:08:43.092,1.5028106,1.0241438,0.5086663,0.70912737,1.3500677,0.48923945,0.38301095,0.7255415,1.448349,0.63147056,0.45731977,1.1002413,1.3720797,0.15925838,0.2597277,0.9476667,0.97976524,0.0030334087,0.035472866,0.98042053,835.2747,846.9597,844.1392,899.34064,963.4066,0.0927734375,0.12017822265625,0.9859619140625,-2.82623291015625,-1.353302001953125,0.186920166015625,1,2.0,1.0,1.0,2.0,67.05
2022-04-03 18:08:43.705,,,,,,,,,,,,,,,,,,,,,,,,,,,,,,,,,,,,,,/muse/elements/blink
2022-04-03 18:08:44.103,1.5028106,0.49010652,0.45822686,0.70912737,1.3500677,0.41863537,0.020635996,0.7255415,1.448349,0.3915098,0.19378066,1.1002413,1.3720797,-0.008980591,0.19619839,0.9476667,0.97976524,-0.06037823,-0.15973285,0.98042053,840.9158,856.2271,847.76556,775.2381,584.2491,-0.04876708984375,0.124267578125,0.9522705078125,-0.157012939453125,26.101531982421875,-24.6136474609375,1,2.0,1.0,1.0,2.0,67.05
2022-04-03 18:08:44.530,,,,,,,,,,,,,,,,,,,,,,,,,,,,,,,,,,,,,,/muse/elements/jaw_clench
2022-04-03 18:08:44.723,,,,,,,,,,,,,,,,,,,,,,,,,,,,,,,,,,,,,,/muse/elements/jaw_clench
2022-04-03 18:08:45.126,1.5028106,0.31475124,0.6035323,0.70912737,1.3500677,0.61019963,0.40799528,0.7255415,1.448349,0.38298696,0.40799293,1.1002413,1.3720797,0.20188488,0.41080758,0.9476667,0.97976524,0.2071664,0.038043324,0.98042053,764.35895,851.79486,846.55676,772.4176,733.3333,-0.1143798828125,0.104248046875,0.966796875,3.087921142578125,-9.34600830078125,0.179443359375,1,2.0,1.0,1.0,2.0,67.02
2022-04-03 18:08:46.129,1.5028106,0.39369413,0.3364454,0.70912737,1.3500677,-0.1099541,0.24696161,0.7255415,1.448349,0.052420028,0.31619462,1.1002413,1.3720797,0.25057223,0.29158786,0.9476667,0.97976524,0.035692047,0.09937076,0.98042053,761.53845,863.0769,839.707,775.2381,714.7985,-0.07452392578125,0.11407470703125,0.962158203125,1.457977294921875,-6.160888671875,3.416900634765625,1,2.0,1.0,1.0,2.0,67.02
2022-04-03 18:08:46.395,,,,,,,,,,,,,,,,,,,,,,,,,,,,,,,,,,,,,,/muse/elements/blink
2022-04-03 18:08:46.882,,,,,,,,,,,,,,,,,,,,,,,,,,,,,,,,,,,,,,/muse/elements/jaw_clench
2022-04-03 18:08:47.137,1.5028106,0.7483116,0.28165957,0.70912737,1.3500677,0.29624265,0.10571034,0.7255415,1.448349,0.19891259,0.3361132,1.1002413,1.3720797,0.25002968,0.14756608,0.9476667,0.97976524,0.11549453,0.21714893,0.98042053,842.52747,843.73627,833.2601,801.8315,673.2967,-0.07464599609375,0.1220703125,0.9853515625,-2.04864501953125,4.605712890625,2.55706787109375,1,2.0,1.0,1.0,2.0,67.02
2022-04-03 18:08:47.593,,,,,,,,,,,,,,,,,,,,,,,,,,,,,,,,,,,,,,/muse/elements/jaw_clench
2022-04-03 18:08:47.772,,,,,,,,,,,,,,,,,,,,,,,,,,,,,,,,,,,,,,/muse/elements/jaw_clench
2022-04-03 18:08:48.157,1.5028106,0.93605536,0.981888,0.70912737,1.3500677,0.49836698,0.65758353,0.7255415,1.448349,0.2461986,0.57313776,1.1002413,1.3720797,0.17519955,0.35437867,0.9476667,0.97976524,0.29357883,0.32227588,0.98042053,843.3333,851.39197,846.9597,904.9817,1004.90845,-0.08160400390625,0.08843994140625,0.98162841796875,-3.970184326171875,3.409423828125,0.351409912109375,1,2.0,1.0,1.0,2.0,67.02
2022-04-03 18:08:49.174,1.5028106,0.5493886,0.20141901,1.0739689,1.3500677,0.27124152,0.4986131,0.5711798,1.448349,0.38357756,0.24791963,1.4438144,1.3720797,0.18749046,0.17163812,1.2883352,0.97976524,0.06713165,0.12954532,1.0124741,811.50183,850.58606,851.39197,838.49817,956.1539,-0.08807373046875,0.09027099609375,0.9857177734375,-2.190704345703125,5.585174560546875,7.334747314453125,1,1.0,1.0,1.0,1.0,67.02
2022-04-03 18:08:49.694,,,,,,,,,,,,,,,,,,,,,,,,,,,,,,,,,,,,,,/muse/elements/blink
2022-04-03 18:08:50.187,1.5028106,0.49049288,0.86288995,0.8580085,1.3500677,0.07696481,0.41786686,0.5091653,1.448349,0.35488582,0.3975499,1.2088304,1.3720797,0.3479695,0.37371385,1.1949681,0.97976524,0.119467854,0.16755164,0.9395156,846.9597,853.00366,863.0769,902.96704,1116.9231,-0.14532470703125,0.23480224609375,0.97186279296875,43.148651123046875,-59.11163330078125,-78.895263671875,1,1.0,1.0,1.0,1.0,67.02
2022-04-03 18:08:51.201,1.5028106,0.9142016,1.1322978,0.41205296,1.3500677,0.18246254,0.6599794,0.5817621,1.448349,0.3346135,0.41734,0.9530173,1.3720797,0.5141688,0.330156,1.1390176,0.97976524,0.2957179,-0.012540078,0.8384619,846.55676,855.82416,826.0073,897.72894,980.7326,-0.0281982421875,0.2528076171875,1.00146484375,-21.750030517578125,19.865875244140625,82.64862060546875,1,1.0,1.0,1.0,1.0,67.02
2022-04-03 18:08:51.619,,,,,,,,,,,,,,,,,,,,,,,,,,,,,,,,,,,,,,/muse/elements/blink
2022-04-03 18:08:52.214,1.5028106,0.77779734,1.1215001,0.41205296,1.3500677,0.23011278,0.46995196,0.5817621,1.448349,0.23235412,0.4205312,0.9530173,1.3720797,0.10691676,0.09731836,1.1390176,0.97976524,-0.06653172,0.09803519,0.8384619,838.0952,848.97437,850.18317,858.6447,677.326,-0.30078125,-0.23321533203125,0.90582275390625,-10.21331787109375,12.4114990234375,-9.562835693359375,1,2.0,1.0,1.0,2.0,67.02
2022-04-03 18:08:52.643,,,,,,,,,,,,,,,,,,,,,,,,,,,,,,,,,,,,,,/muse/elements/blink
2022-04-03 18:08:53.230,1.5028106,0.5298292,1.0308836,0.41205296,1.3500677,-0.027089238,0.4012777,0.5817621,1.448349,0.2556096,0.30637145,0.9530173,1.3720797,0.11601621,0.059905507,1.1390176,0.97976524,-0.02760562,0.086576,0.8384619,823.1868,861.06226,860.2564,857.8388,762.3443,-0.46197509765625,-0.2403564453125,0.832275390625,-3.372039794921875,5.959014892578125,6.20574951171875,1,2.0,1.0,1.0,2.0,67.02
2022-04-03 18:08:54.235,1.5028106,0.27356827,1.1674402,0.41205296,1.3500677,-0.2167171,0.4268875,0.5817621,1.448349,0.20471151,0.013096329,0.9530173,1.3720797,0.044371266,-0.1397074,1.1390176,0.97976524,-0.09913254,-0.10941348,0.8384619,799.41394,831.2454,874.35895,848.97437,967.4359,-0.33837890625,-0.0777587890625,0.91998291015625,14.318084716796875,-16.090087890625,18.146209716796875,1,2.0,1.0,1.0,2.0,67.02
2022-04-03 18:08:54.402,,,,,,,,,,,,,,,,,,,,,,,,,,,,,,,,,,,,,,/muse/elements/blink
2022-04-03 18:08:55.239,1.5028106,1.2164925,0.94831795,0.41205296,1.3500677,0.36140364,0.4875624,0.5817621,1.448349,0.14569043,0.04472405,0.9530173,1.3720797,8.688367E-4,-0.06450291,1.1390176,0.97976524,-0.14296216,0.054773726,0.8384619,834.87177,851.79486,840.9158,856.2271,727.6923,0.0029296875,0.2601318359375,0.9617919921875,-0.934600830078125,4.119720458984375,1.667327880859375,1,2.0,1.0,1.0,2.0,67.02
2022-04-03 18:08:56.246,0.35175845,0.5647801,0.4339699,0.03851836,-0.15664317,0.2525426,0.06074895,0.07302204,0.3590644,0.21767648,-0.17201269,0.60761493,0.85067457,0.099082574,-0.16011307,0.5378669,0.61622614,-0.06452088,-0.4171671,0.44224045,843.73627,851.79486,839.304,816.7399,671.28204,-0.077392578125,0.18853759765625,0.97406005859375,-9.906768798828125,6.018829345703125,-9.271240234375,1,1.0,1.0,1.0,1.0,66.98
2022-04-03 18:08:56.906,,,,,,,,,,,,,,,,,,,,,,,,,,,,,,,,,,,,,,/muse/elements/blink
2022-04-03 18:08:57.247,0.9695782,0.30623543,0.55280954,0.655684,0.6775483,0.09278357,0.08518276,0.30854353,1.0628746,0.43323842,0.120583914,0.86375475,0.8332833,-0.0044478,-0.2482964,0.6751894,0.59128255,-0.23280492,-0.4081396,0.30079317,842.1245,847.76556,844.5421,778.86444,674.10254,0.12042236328125,0.06097412109375,0.9622802734375,-3.536529541015625,-11.12548828125,-12.48626708984375,1,1.0,1.0,1.0,1.0,66.98
2022-04-03 18:08:58.265,1.4010295,0.4853605,0.57331085,0.92287457,0.9846632,0.13742363,0.2491617,0.32845682,1.1701084,0.43879887,0.10841107,0.19590941,0.6012962,-0.079183504,-0.23604229,-0.0033114485,0.28368008,-0.25789207,-0.4861888,-0.096561305,827.619,858.6447,1650.0,772.01465,626.55676,0.22796630859375,0.0843505859375,0.986083984375,-4.85992431640625,-18.490142822265625,-6.751556396484375,1,1.0,1.0,1.0,1.0,66.98
2022-04-03 18:08:58.633,,,,,,,,,,,,,,,,,,,,,,,,,,,,,,,,,,,,,,/muse/elements/blink
2022-04-03 18:08:59.285,1.4010295,0.34472,-0.0068217386,0.92287457,0.9846632,-0.30272624,0.061510693,0.32845682,1.1701084,-0.22059445,-0.26820856,0.19590941,0.6012962,-0.15655817,-0.14657351,-0.0033114485,0.28368008,-0.3089505,-0.4886843,-0.096561305,829.2308,845.34796,703.1135,833.663,830.0366,0.20843505859375,0.0782470703125,0.9775390625,-4.523468017578125,22.692108154296875,5.899200439453125,1,1.0,1.0,4.0,1.0,66.98
2022-04-03 18:08:59.790,,,,,,,,,,,,,,,,,,,,,,,,,,,,,,,,,,,,,,/muse/elements/blink
2022-04-03 18:09:00.292,1.4010295,1.4229603,-0.043081548,0.92287457,0.9846632,0.5851275,-0.035138562,0.32845682,1.1701084,0.33846128,-0.3071273,0.19590941,0.6012962,-0.038659263,-0.1495282,-0.0033114485,0.28368008,-0.28277776,-0.46474755,-0.096561305,859.45056,895.31134,803.8461,883.6264,909.011,-0.209716796875,0.168212890625,0.92193603515625,14.43023681640625,28.96514892578125,-38.797149658203125,1,1.0,1.0,1.0,1.0,66.98
2022-04-03 18:09:01.314,0.9014957,1.3620533,0.8354132,0.273272,0.71180356,0.56363857,0.14332686,0.44022015,1.3428088,0.36136943,0.1728594,0.9924433,1.204157,0.022712048,-0.26184574,0.9942226,0.8791828,-0.2728058,-0.6111948,0.77001005,823.9927,852.6007,817.5458,833.2601,877.5824,-0.38299560546875,0.28179931640625,0.86956787109375,1.45050048828125,6.377716064453125,-8.456268310546875,1,1.0,1.0,1.0,1.0,66.98
2022-04-03 18:09:02.331,0.8657746,0.9583231,0.5214175,0.4890678,0.59078807,0.20252147,-0.035616748,0.4531052,1.3428088,0.3611911,0.2382712,1.0929571,1.1056409,0.035793584,-0.28487724,0.99112713,0.86271805,0.011286642,-0.5702491,0.7549849,847.3626,849.7802,815.5311,835.2747,889.67035,-0.42059326171875,0.22979736328125,0.867431640625,-4.41131591796875,1.128997802734375,0.34393310546875,1,1.0,1.0,1.0,1.0,66.98
2022-04-03 18:09:02.940,,,,,,,,,,,,,,,,,,,,,,,,,,,,,,,,,,,,,,/muse/elements/blink
2022-04-03 18:09:03.340,0.51272756,0.7612428,0.36689627,0.58727866,0.20320192,0.07098272,-0.024807246,0.44068074,1.0985663,0.22491863,0.30942497,0.9273614,0.73001146,-0.101794794,-0.24818711,0.89114094,0.6557331,-0.11891612,-0.6170316,0.5949125,867.9121,838.9011,811.0989,893.69965,1008.93774,-0.43048095703125,0.21563720703125,0.86639404296875,-6.92352294921875,1.51031494140625,8.47869873046875,1,1.0,1.0,1.0,1.0,66.98
2022-04-03 18:09:04.362,0.51272756,1.0943892,0.9486657,0.6095317,0.20320192,0.17192708,0.48083705,0.4387786,1.0985663,-0.20489492,0.34206566,0.77666855,0.73001146,-0.28862438,0.030006683,0.59058315,0.6557331,-0.32659385,-0.4629786,-0.009714385,871.9414,845.7509,854.61536,900.14655,973.0769,-0.26287841796875,0.156494140625,0.9410400390625,-2.76641845703125,-3.850555419921875,25.503387451171875,1,1.0,1.0,1.0,1.0,66.98
2022-04-03 18:09:05.379,0.51272756,1.3557724,0.9302729,1.4135741,0.20320192,0.7586758,0.44219115,1.0916288,1.0985663,0.9113534,0.310519,1.1413627,0.73001146,-0.3076477,0.017531497,0.9515863,0.6557331,-0.7968173,-0.4761615,0.12848456,838.0952,846.55676,833.663,870.32965,804.2491,0.00738525390625,0.15185546875,0.9781494140625,-6.123504638671875,-1.36077880859375,-9.630126953125,1,1.0,1.0,1.0,1.0,66.97
2022-04-03 18:09:06.403,0.51272756,1.1951041,0.6394027,1.4135741,0.20320192,0.6398041,0.17056054,1.0916288,1.0985663,0.90739703,-0.21583007,1.1413627,0.73001146,-0.34062722,-0.613848,0.9515863,0.6557331,-0.92316896,-0.9320565,0.12848456,847.76556,853.4066,836.08057,905.38464,1044.7986,3.662109375E-4,0.14263916015625,0.9893798828125,-5.0543212890625,2.474822998046875,-3.641204833984375,1,1.0,1.0,1.0,1.0,66.97
2022-04-03 18:09:07.426,0.754062,0.10837319,0.41799954,1.4135741,0.45970142,-0.0012516618,-0.02029755,1.0916288,0.7271769,-0.08827305,-0.028180534,1.1413627,0.32873392,-0.53722614,-0.46001372,0.9515863,-0.1329191,-1.1294312,-0.652829,0.12848456,811.9048,848.1685,851.39197,792.96704,651.9414,-0.0054931640625,0.12847900390625,0.98883056640625,-1.77947998046875,1.74957275390625,1.1962890625,1,1.0,1.0,1.0,1.0,66.97
2022-04-03 18:09:08.446,0.9740662,0.18921667,0.63257,0.4290538,0.75487816,-0.13370293,0.16515954,-0.11148154,0.9003751,-0.07023372,0.08895991,0.36047697,0.2802152,-0.4958278,-0.2888806,-0.01424421,0.0126414,-0.8403408,-0.6197771,-0.10859032,836.8865,859.45056,832.0513,778.86444,667.6557,-0.02301025390625,0.12359619140625,0.990478515625,-6.34033203125,2.1234130859375,-10.12359619140625,1,1.0,1.0,1.0,1.0,66.97
2022-04-03 18:09:09.466,1.1516756,0.117327705,0.6349375,0.85288453,1.0591418,-0.04698475,0.33706298,0.6858864,0.9986594,-0.21331339,0.012978949,0.81342584,0.43260285,-0.47151315,-0.29846457,0.15842706,0.06534305,-0.67883307,-0.562624,0.039884936,827.2161,857.03296,848.1685,884.0293,1009.34064,-0.09271240234375,0.03912353515625,0.99310302734375,0.157012939453125,4.478607177734375,-18.1536865234375,1,1.0,1.0,1.0,1.0,66.97
2022-04-03 18:09:10.473,0.95405674,0.08986126,0.74396795,0.86170214,0.7780674,-0.20417954,0.4323583,0.6567871,0.8968187,0.015645059,0.2287372,0.8062512,0.74874204,-0.36067098,-0.2615023,0.13838539,0.39026386,-0.59622896,-0.6755504,-0.21548437,841.31866,848.1685,853.4066,867.9121,996.4469,-0.146484375,0.0556640625,0.97430419921875,1.60003662109375,-1.876678466796875,-25.398712158203125,1,1.0,1.0,1.0,1.0,66.97
2022-04-03 18:09:11.477,0.92079306,0.31736937,0.8330696,0.84629107,0.67445827,0.08116744,0.46967515,0.5131553,0.98627496,0.52068394,0.5651339,0.74008864,0.8374299,-0.08727814,-0.11656739,0.2096431,0.4685125,-0.48197603,-0.56551814,-0.1189151,841.7216,850.18317,853.8095,882.01465,975.09155,-0.08197021484375,0.03863525390625,0.99139404296875,-2.310333251953125,1.8841552734375,-0.07476806640625,1,1.0,1.0,1.0,1.0,66.97
2022-04-03 18:09:12.766,,,,,,,,,,,,,,,,,,,,,,,,,,,,,,,,,,,,,,/muse/elements/blink
2022-04-03 18:09:12.827,0.90063876,0.5910566,0.5244095,0.8618146,0.6643843,0.6046804,0.48711511,0.6093003,0.9987619,0.7010773,0.7313006,0.85029703,0.68398577,-0.09206341,-0.23461773,0.3412938,0.1494166,-0.6525853,-0.7064602,0.016088532,839.304,850.18317,851.79486,847.76556,729.707,-0.077880859375,0.04974365234375,0.98876953125,-1.428070068359375,2.16827392578125,0.680389404296875,1,1.0,1.0,1.0,1.0,66.97
2022-04-03 18:09:13.833,1.0116178,0.6528875,0.2943925,1.0219929,0.6214925,0.5077917,-0.06049942,0.5082964,0.9073651,0.50329155,0.117587246,0.6225383,0.60148966,-0.3362572,-0.329116,0.38260716,0.16239266,-0.7356787,-0.77332944,0.075872466,842.52747,852.6007,851.39197,855.82416,784.90845,-0.0751953125,0.03863525390625,0.99237060546875,-3.910369873046875,-1.1663818359375,-1.323394775390625,1,1.0,1.0,1.0,1.0,66.97
2022-04-03 18:09:14.842,1.399609,0.49074307,0.29565552,1.4483296,1.061908,-0.07770563,-0.26449853,1.1243156,0.78611606,-0.043145623,-0.26371074,0.6584817,0.4395064,-0.2641016,-0.34562403,0.44055605,0.15734619,-0.5898791,-0.7141633,0.036122933,852.1978,851.79486,983.1502,910.2198,991.2088,0.198974609375,0.02618408203125,0.98065185546875,-3.6785888671875,-12.045135498046875,-20.359344482421875,1,1.0,1.0,1.0,1.0,66.97
2022-04-03 18:09:15.851,1.3978164,0.77234864,0.5156189,1.2797699,1.0978053,-0.1123917,-0.47055414,0.98438585,0.9983923,-0.12734498,-0.5761248,1.2111295,0.6414385,-0.14206901,-0.33842322,0.8987264,0.26256767,-0.2495694,-0.6693852,0.503495,802.6374,851.39197,777.6557,771.2088,664.0293,0.23028564453125,0.03277587890625,0.9659423828125,-1.637420654296875,8.71795654296875,-2.235565185546875,1,1.0,1.0,1.0,1.0,66.95
2022-04-03 18:09:16.861,1.2493926,0.27675644,0.5765266,1.2717597,1.2844117,-0.28757262,-0.14746399,1.218839,1.1940693,0.15453444,0.060377255,1.3719578,1.3427383,0.14426295,0.012444048,1.097129,0.9826722,-0.21552466,-0.16309851,0.7913034,834.4689,851.79486,789.7436,793.36993,793.36993,-0.3763427734375,0.07586669921875,0.9278564453125,-4.807586669921875,8.261871337890625,-4.762725830078125,1,1.0,1.0,1.0,1.0,66.95
2022-04-03 18:09:17.890,1.4104674,0.78311294,0.61385715,1.504534,1.290414,0.1230298,-0.1278114,1.2131563,1.1998675,0.42032877,0.073532544,1.3204888,1.7126042,0.15557806,-0.009063744,1.008786,1.423399,-0.14742254,-0.19698077,0.8214139,856.63007,857.4359,820.3663,820.7692,876.3736,-0.37249755859375,0.06451416015625,0.91790771484375,-1.60003662109375,1.5252685546875,1.734619140625,1,1.0,1.0,1.0,1.0,66.95
2022-04-03 18:09:18.891,1.4151762,0.90018815,0.094727814,1.4455001,1.2280715,0.24875261,-0.58248216,0.9952399,1.1971135,0.3802322,-0.5423268,0.98392195,1.7363392,-0.02553427,-0.35522974,0.8015444,1.4424697,-0.26548958,-0.77602607,0.6851458,793.36993,830.84247,815.12823,780.4762,711.5751,-0.36553955078125,0.06915283203125,0.91790771484375,-2.51220703125,2.0635986328125,1.143951416015625,1,1.0,1.0,1.0,1.0,66.95
2022-04-03 18:09:19.904,0.73547393,0.91708034,0.96401685,1.062093,0.008447312,-0.33878788,-0.37366933,0.16169347,0.55601597,0.24581154,0.20886801,0.5469091,0.7368161,-0.10115169,-0.27122238,0.58600247,0.64750195,-0.48661464,-0.70422536,0.5047138,858.24176,846.1539,836.4835,899.7436,926.337,-0.35552978515625,0.06494140625,0.9234619140625,-2.534637451171875,0.829925537109375,0.022430419921875,1,1.0,1.0,1.0,1.0,66.95
2022-04-03 18:09:20.922,0.9430116,0.9804691,1.1047168,1.0054761,0.73530895,0.58240664,0.4796339,0.3575734,0.94581217,0.5998629,0.37105498,0.5245046,0.81526583,-0.06708295,-0.23961727,0.46158078,0.80160606,-0.36301383,-0.7264272,0.44621763,837.28937,827.619,819.5604,870.32965,963.00366,-0.298828125,0.0860595703125,0.93743896484375,-2.04864501953125,-0.575714111328125,3.9776611328125,1,1.0,1.0,1.0,1.0,66.95
2022-04-03 18:09:21.926,1.3171173,1.2736317,1.2745408,1.305055,1.14714,0.9824756,0.9508232,1.0632299,1.2012242,0.9505725,0.98035544,1.0425746,0.8263436,0.17937657,0.019122725,0.6124895,0.628175,-0.36290738,-0.76477516,0.36345395,819.9634,842.1245,841.31866,857.03296,813.1135,-0.30145263671875,0.12908935546875,0.940673828125,-6.975860595703125,3.491668701171875,12.359161376953125,1,1.0,1.0,1.0,1.0,66.95
2022-04-03 18:09:22.929,1.102613,1.0357034,1.0108105,1.2109041,0.7238837,0.45323306,0.44704765,0.63871217,1.2433282,0.77627456,0.81717634,1.0163437,0.6834215,-0.16129439,-0.23122688,0.59352285,0.69858015,-0.439078,-0.7867657,0.22262028,868.71796,857.4359,841.7216,836.8865,942.0513,-0.34759521484375,0.16278076171875,0.90753173828125,-20.994873046875,7.05810546875,43.178558349609375,1,1.0,1.0,1.0,1.0,66.95
2022-04-03 18:09:23.947,0.83669734,0.7919561,0.84740466,1.0562766,0.25273293,0.48551342,0.46547544,0.46286386,1.1465443,0.48840523,0.33646375,1.0119908,0.48260418,-0.21199208,-0.22768214,0.9121701,0.49755287,-0.60274816,-1.0039599,0.50558805,854.21246,842.9304,842.52747,900.9524,991.6117,-0.28662109375,0.09149169921875,0.94244384765625,-11.903076171875,2.848663330078125,21.5032958984375,1,1.0,1.0,1.0,1.0,66.95
2022-04-03 18:09:24.955,0.93685365,0.5504645,0.49912295,0.8622278,0.64242786,0.37565017,0.33392155,0.4167774,0.86396414,0.48593658,0.22594532,1.2133788,0.26354185,-0.14898354,-0.46672,0.80626786,-0.027805617,-0.6089221,-1.154698,0.6202863,837.6923,845.7509,843.3333,839.707,755.89746,-0.2236328125,0.07928466796875,0.9521484375,-2.415008544921875,-2.071075439453125,-5.0244140625,1,1.0,1.0,1.0,1.0,66.94
2022-04-03 18:09:25.974,0.8556782,0.5975027,0.2778727,0.7820786,0.50441325,-0.034750827,-0.36313525,0.34791863,0.62707335,0.16242643,-0.23815003,0.914644,0.14516407,-0.30855882,-0.5588732,0.3864185,-0.19614914,-0.6975005,-1.0100907,0.07732435,826.0073,841.7216,842.9304,847.76556,756.7033,-0.2109375,0.0784912109375,0.96990966796875,-2.91595458984375,2.714080810546875,2.893524169921875,1,1.0,1.0,1.0,1.0,66.94
2022-04-03 18:09:26.995,0.5716006,0.5294439,0.34339184,0.43025792,-0.004006641,-0.14789082,-0.21557128,0.1848245,0.40631238,-0.022693994,-0.08648635,0.7290219,0.14600459,-0.6402629,-0.444885,0.41443416,-0.2512455,-0.9529949,-1.1199552,0.021136198,838.49817,849.3773,841.7216,862.674,794.17584,-0.19610595703125,0.06866455078125,0.9696044921875,-2.534637451171875,1.652374267578125,0.934600830078125,1,1.0,1.0,1.0,1.0,66.94
2022-04-03 18:09:27.725,,,,,,,,,,,,,,,,,,,,,,,,,,,,,,,,,,,,,,/muse/elements/blink
2022-04-03 18:09:28.019,0.4372937,0.60022205,0.296915,0.2699422,0.35106677,0.5283339,0.46416208,0.52771115,0.32241222,0.07528384,0.055325735,0.768369,0.18759844,-0.513034,-0.4164703,0.44475535,-0.13421313,-0.84678835,-1.0184106,0.049376898,850.18317,848.5714,843.3333,858.24176,761.13556,-0.19866943359375,0.07470703125,0.96575927734375,-1.21124267578125,2.265472412109375,0.770111083984375,1,1.0,1.0,1.0,1.0,66.94
2022-04-03 18:09:29.026,0.6544666,0.45942461,0.6383462,0.52784956,0.69602364,0.4315607,0.33767006,0.84532315,0.2546413,0.24565625,0.15254715,0.741543,0.17170246,-0.10102922,-0.4765161,0.3667401,-0.053005878,-0.5613986,-0.6930913,0.22423486,837.6923,865.09155,836.4835,827.619,888.0586,-0.114013671875,0.10052490234375,0.972900390625,-4.59075927734375,3.357086181640625,1.136474609375,1,1.0,1.0,1.0,1.0,66.94
2022-04-03 18:09:29.127,,,,,,,,,,,,,,,,,,,,,,,,,,,,,,,,,,,,,,/muse/elements/blink
2022-04-03 18:09:30.033,0.6544666,0.6044783,0.89460695,0.52784956,0.69602364,0.12058176,-0.10892978,0.84532315,0.2546413,0.21376827,0.063276924,0.741543,0.17170246,-0.3635308,-0.47059658,0.3667401,-0.053005878,-0.66465676,-0.73451054,0.22423486,840.5128,851.39197,844.1392,891.685,1007.72894,-0.113525390625,0.07244873046875,0.9964599609375,-3.00567626953125,5.884246826171875,2.429962158203125,1,2.0,1.0,1.0,2.0,66.94
2022-04-03 18:09:31.052,0.7844631,0.50243014,0.75429153,0.7589601,0.3928877,0.14092064,-0.36247015,0.25503317,0.49210548,-0.016794266,-0.3148153,0.58373,0.20395724,-0.40512604,-0.6519261,0.25351176,-0.28041342,-0.7541724,-0.8390604,-0.07896386,857.8388,850.989,840.5128,890.87915,846.1539,-0.0880126953125,0.064453125,0.99847412109375,-0.52337646484375,-3.536529541015625,-0.657958984375,1,1.0,1.0,1.0,1.0,66.94
2022-04-03 18:09:32.057,0.7844631,0.9278923,0.7047386,0.7589601,0.3928877,0.05572922,-0.28270817,0.25503317,0.49210548,0.12942468,0.18315631,0.58373,0.20395724,-0.32620826,-0.57810634,0.25351176,-0.28041342,-0.56989104,-0.89238596,-0.07896386,890.87915,852.1978,885.2381,891.28204,1024.652,-0.05181884765625,0.0289306640625,0.99993896484375,-0.8673095703125,4.089813232421875,2.773895263671875,1,1.0,1.0,1.0,1.0,66.94
2022-04-03 18:09:33.074,0.7778422,1.1090363,1.038498,0.60925174,0.29247177,-0.070492506,-0.044738546,0.27119848,0.43873113,-0.15335715,0.17192955,0.57005644,0.23123945,-0.30755264,-0.45922458,0.25716498,-0.27618644,-0.36732873,-0.730823,-0.07633401,823.9927,664.0293,824.7985,899.34064,976.7033,-0.07000732421875,0.07080078125,0.9969482421875,-0.2093505859375,-1.233673095703125,-0.934600830078125,1,1.0,1.0,1.0,1.0,66.94
2022-04-03 18:09:34.098,0.31448787,1.1090363,0.8394876,0.60925174,0.32986516,-0.070492506,0.06442168,0.27119848,0.6118463,-0.15335715,0.05228324,0.57005644,0.0839106,-0.30755264,-0.6039004,0.25716498,-0.059274264,-0.36732873,-0.80168205,-0.07633401,839.707,839.707,837.28937,910.6227,984.35895,5.4931640625E-4,0.06494140625,0.98101806640625,-6.2506103515625,-1.727142333984375,-3.072967529296875,1,1.0,1.0,1.0,1.0,66.94
2022-04-03 18:09:35.102,0.37886193,0.30114287,0.48867303,0.8015803,0.27426106,-0.37152088,0.18739116,0.51130074,0.51964164,0.022917254,0.24845012,0.80552477,0.22304828,-0.18620731,-0.4778478,0.16392435,0.015684417,-0.43829042,-0.8667843,-0.2523952,828.022,855.42126,830.84247,884.0293,962.1978,-0.0032958984375,0.12908935546875,0.99420166015625,0.471038818359375,1.218719482421875,-2.213134765625,1,1.0,1.0,1.0,1.0,66.91
2022-04-03 18:09:36.125,0.39727795,0.26500016,0.34719846,0.6059138,0.07571687,-0.095806815,0.040885102,0.3592411,0.48090944,0.026869854,0.20750518,0.7813355,0.44516137,-0.18947704,-0.49043116,0.15817218,0.0071508214,-0.418934,-0.92450494,-0.26627573,929.5604,852.6007,829.2308,901.75824,981.9414,-0.017578125,0.1182861328125,0.99005126953125,2.908477783203125,0.88226318359375,2.594451904296875,1,1.0,1.0,1.0,1.0,66.91
2022-04-03 18:09:37.141,0.12409598,0.9592533,0.7581901,1.0056046,-0.63536733,0.3238581,-0.25567538,0.2508444,0.34525934,0.0517643,-0.106936365,0.2824013,0.5515776,-0.25291315,-0.40170735,0.2901806,-0.12384584,-0.329207,-0.7738238,0.29344946,779.2674,838.0952,847.76556,786.1172,726.4835,0.01019287109375,0.12017822265625,0.99359130859375,-4.478607177734375,1.9439697265625,2.67669677734375,1,1.0,1.0,1.0,1.0,66.91
2022-04-03 18:09:38.165,0.12409598,1.229863,0.94788957,1.0056046,-0.63536733,0.6085849,0.3868121,0.2508444,0.34525934,0.023744414,0.2877643,0.2824013,0.5515776,-0.3139294,-0.24051175,0.2901806,-0.12384584,-0.3159139,-0.77476376,0.29344946,877.5824,830.0366,837.6923,791.3553,656.77655,-0.0926513671875,0.048583984375,0.9808349609375,-4.14215087890625,12.96478271484375,35.776519775390625,1,1.0,1.0,1.0,1.0,66.91
2022-04-03 18:09:39.173,0.12409598,1.229863,0.7870485,1.0056046,-0.63536733,0.6085849,0.39977875,0.2508444,0.34525934,0.023744414,0.30695212,0.2824013,0.5515776,-0.3139294,-0.29900885,0.2901806,-0.12384584,-0.3159139,-0.6447739,0.29344946,866.30035,850.58606,854.61536,805.8608,759.12085,-0.11407470703125,0.089111328125,0.97344970703125,-3.72344970703125,9.21142578125,30.98388671875,1,2.0,1.0,1.0,2.0,66.91
2022-04-03 18:09:40.204,1.3125643,0.17566207,0.62734896,0.5456097,1.0046587,-0.07543717,0.20380786,0.7433535,1.0443442,-0.20182006,0.24714184,1.0918927,0.7865148,-0.2786672,-0.33997005,1.221008,0.6704433,-0.31922728,-0.5454374,0.81235445,905.38464,840.5128,840.9158,863.0769,991.6117,-0.16326904296875,0.17724609375,0.9698486328125,2.429962158203125,-5.271148681640625,11.671295166015625,1,1.0,1.0,1.0,1.0,66.91
2022-04-03 18:09:41.215,1.218888,0.21577989,0.40923983,0.71201843,0.8665994,-0.13770619,0.04572768,0.35806566,1.0658873,0.13785037,0.24395849,1.2544357,1.0068067,-0.2661071,-0.45206493,1.2131999,0.9478501,-0.4924586,-0.48399162,0.8951181,911.02563,855.42126,830.4396,925.12823,1028.2784,0.3155517578125,0.20452880859375,0.9232177734375,-4.6356201171875,-16.7779541015625,22.4005126953125,1,1.0,1.0,1.0,1.0,66.91
2022-04-03 18:09:42.229,1.218888,0.44155788,0.4981442,1.2491593,0.8665994,-0.041666944,0.32704923,0.63613605,1.0658873,0.1795916,0.20406651,1.1313113,1.0068067,-0.27455577,-0.35808083,1.3002572,0.9478501,-0.6191787,-0.36924517,1.0434678,819.5604,848.5714,820.3663,861.06226,1028.2784,0.37030029296875,0.14910888671875,0.9063720703125,-0.59814453125,0.874786376953125,1.278533935546875,1,1.0,1.0,1.0,1.0,66.91
2022-04-03 18:09:42.347,,,,,,,,,,,,,,,,,,,,,,,,,,,,,,,,,,,,,,/muse/elements/blink
2022-04-03 18:09:43.236,1.218888,0.122009516,0.5365762,1.2534137,0.8665994,-0.1348003,0.330658,0.62528384,1.0658873,0.15030687,0.4373037,1.1192498,1.0068067,0.16341308,-0.30157664,1.3677369,0.9478501,-0.5414905,-0.3574675,1.0832092,861.06226,856.2271,846.1539,887.6557,1027.0696,0.377685546875,0.17584228515625,0.91070556640625,-2.609405517578125,3.81317138671875,-1.136474609375,1,1.0,1.0,1.0,1.0,66.91
2022-04-03 18:09:44.241,0.301618,-0.058709342,0.13820063,0.57032317,0.106081896,-0.30944827,-0.057417016,-0.12888582,0.5925004,0.03909647,0.44392508,0.873155,0.97225976,0.07722424,-0.36983296,1.1009964,0.73502934,-0.45548737,-0.53280616,0.96806365,845.7509,850.58606,845.34796,834.0659,732.52747,0.2186279296875,0.16717529296875,0.9556884765625,-4.62066650390625,9.458160400390625,-6.38519287109375,1,1.0,1.0,1.0,1.0,66.91
2022-04-03 18:09:45.275,,,,,,,,,,,,,,,,,,,,,,,,,,,,,,,,,,,,,,/muse/elements/blink
2022-04-03 18:09:45.277,0.6068886,0.13500652,0.2017346,0.5441438,0.16844577,-0.15629157,-0.17439352,0.10228766,0.60071653,0.08849742,0.021932675,0.922207,0.4924941,-0.16390349,-0.34595895,0.96319056,0.38567874,-0.5084939,-0.687547,0.5816954,835.6777,855.42126,845.34796,841.31866,720.0366,0.16912841796875,0.16766357421875,0.966552734375,-2.99072265625,3.21502685546875,-2.714080810546875,1,1.0,1.0,1.0,1.0,66.89
2022-04-03 18:09:46.285,0.9698797,0.1603878,0.57441914,1.1271288,0.9144329,0.029803993,0.1561631,1.0903349,1.0562216,0.11886136,0.23029754,1.2212962,0.49247512,-0.2109284,-0.28119048,0.921889,0.053236354,-0.5749444,-0.90802795,0.4204726,832.0513,873.95605,836.8865,775.2381,642.27106,0.02923583984375,0.15484619140625,0.99334716796875,-3.775787353515625,11.162872314453125,-40.77850341796875,1,1.0,1.0,1.0,1.0,66.89
2022-04-03 18:09:47.292,0.6977642,0.72833425,0.72708166,0.9649503,0.614613,-0.04958747,-0.11212413,0.73830324,0.79415786,0.24916704,-0.14777353,0.9191642,0.3260123,-0.10418419,-0.43348098,0.5824893,-0.025242746,-0.45901418,-0.94594795,0.066085614,827.619,843.3333,847.3626,815.5311,672.0879,-0.35498046875,-0.019287109375,0.92333984375,-5.802001953125,3.132781982421875,-26.370697021484375,1,1.0,1.0,1.0,1.0,66.89
2022-04-03 18:09:48.300,0.23426683,0.77375954,0.68995565,0.8002918,-0.057961613,-0.1524674,0.11955068,0.45021942,0.65418875,0.21466836,-0.015827402,0.5589559,0.8828336,-0.0036520404,-0.458825,0.3068319,0.5082825,-0.38956654,-0.88170207,-0.028520541,851.39197,846.9597,844.5421,902.5641,1004.90845,-0.29791259765625,-0.03558349609375,0.93536376953125,-7.603912353515625,2.923431396484375,3.00567626953125,1,1.0,1.0,1.0,1.0,66.89
2022-04-03 18:09:49.115,,,,,,,,,,,,,,,,,,,,,,,,,,,,,,,,,,,,,,/muse/elements/blink
2022-04-03 18:09:49.314,0.3125788,0.17067276,0.60439914,0.39074937,-0.054394815,-0.4152375,0.18307894,0.19067048,0.73401904,-0.06790522,0.13230461,0.4823391,0.762576,-0.15463999,-0.34439936,0.24214885,0.39937013,-0.4112625,-0.63648003,0.0070825485,805.8608,853.8095,838.9011,770.40295,671.685,-0.64208984375,-0.04095458984375,0.75128173828125,-23.768768310546875,46.094512939453125,30.378265380859375,1,1.0,1.0,1.0,1.0,66.89
2022-04-03 18:09:49.521,,,,,,,,,,,,,,,,,,,,,,,,,,,,,,,,,,,,,,/muse/elements/blink
2022-04-03 18:09:50.360,-0.09749388,0.6066261,1.1989641,0.08996565,-0.38364503,-0.29210988,0.5254833,0.24733588,0.5708282,0.17041492,0.2689729,0.3735711,0.70440733,0.08343794,0.32081643,0.20703374,0.2538214,0.14006603,0.03791906,0.19654998,830.0366,855.0183,840.5128,838.49817,920.696,-0.8670654296875,-0.05706787109375,0.482666015625,-1.51031494140625,-0.800018310546875,0.814971923828125,1,1.0,1.0,1.0,1.0,66.89
2022-04-03 18:09:51.389,0.47541735,0.038504593,0.051325265,-0.02983239,0.28780016,-0.37452924,-0.17803805,-0.12314579,0.94005203,0.04315438,0.061557412,0.5563618,0.5630001,0.30288506,0.16142409,0.38181642,0.43269762,0.16766836,-0.1686973,0.2825682,890.4762,843.3333,852.6007,929.15753,1042.381,-0.83782958984375,-0.052001953125,0.5281982421875,-1.7645263671875,-5.570220947265625,0.83740234375,1,1.0,1.0,1.0,1.0,66.89
2022-04-03 18:09:52.405,0.61529946,0.15807356,0.19953394,0.38194218,0.41425174,0.0578783,-0.073758855,0.047425438,1.0628575,0.29703483,0.038860064,0.6610159,0.51344365,0.21959512,-0.0782093,0.40271708,0.35795185,0.024673425,-0.4514593,0.3094851,846.55676,841.7216,842.1245,836.4835,690.6227,-0.7220458984375,-0.06732177734375,0.6807861328125,-11.005859375,0.25421142578125,2.355194091796875,1,1.0,1.0,1.0,1.0,66.89
2022-04-03 18:09:53.413,0.8345121,0.45219916,0.5613162,1.400467,0.6542437,0.14972559,0.28202337,1.062617,1.0567003,0.33989248,0.15532927,0.8847646,0.51940656,-0.23722851,-0.49900508,1.0887206,0.35934547,-0.47233742,-0.8952244,0.35963222,840.10986,840.9158,844.5421,864.68866,780.07324,-0.73199462890625,-0.1009521484375,0.65875244140625,-3.90289306640625,-0.2691650390625,6.639404296875,1,1.0,1.0,1.0,1.0,66.89
2022-04-03 18:09:54.442,0.5617923,-0.059915327,0.33618566,0.35575,-0.3437565,-0.23966485,0.07601477,0.12736754,0.38633484,-0.06969758,0.13691589,0.7830287,0.6699276,-0.30471277,-0.534222,0.9944011,0.53505546,-0.71300536,-0.9951155,0.5992771,836.08057,852.1978,844.5421,788.93774,672.0879,-0.70697021484375,-0.05206298828125,0.6910400390625,-0.538330078125,0.4486083984375,-0.695343017578125,1,1.0,1.0,1.0,1.0,66.89
2022-04-03 18:09:55.446,0.55618894,-0.08088865,0.026833396,0.4134979,0.23077033,-0.08156798,-0.083564065,0.18594125,0.50113064,0.030678054,-0.07268598,0.72462404,0.5954165,-0.19379312,-0.46048403,0.84523654,0.39613128,-0.36973944,-0.9870523,0.5972705,827.619,848.97437,842.52747,795.78754,651.53845,-0.750732421875,-0.10552978515625,0.64288330078125,-2.01873779296875,1.24114990234375,1.57012939453125,1,1.0,1.0,1.0,1.0,66.86
2022-04-03 18:09:56.450,0.6009709,-0.077722415,-0.16343458,0.53236914,0.30148938,-0.15045735,-0.3627857,0.20483808,0.4949902,-0.09212884,-0.18342432,0.66846657,0.48459068,-0.19288662,-0.51323295,0.6604762,0.35881513,-0.2672545,-0.89290416,0.34670222,846.1539,849.7802,841.7216,872.3443,1011.3553,-0.743896484375,-0.10736083984375,0.64910888671875,-1.203765869140625,1.532745361328125,-0.082244873046875,1,1.0,1.0,1.0,1.0,66.86
2022-04-03 18:09:56.894,,,,,,,,,,,,,,,,,,,,,,,,,,,,,,,,,,,,,,/muse/elements/blink
2022-04-03 18:09:57.051,,,,,,,,,,,,,,,,,,,,,,,,,,,,,,,,,,,,,,/muse/elements/blink
2022-04-03 18:09:57.453,1.2696681,-0.08401103,0.9953357,-0.024491206,0.82563066,-0.40858266,0.62000465,-0.13472535,1.4642273,-0.13986763,1.4577013,0.2246254,0.6078069,-0.4131692,8.7823573E-4,0.62734747,0.36541483,-0.40744078,-0.39437285,0.4228691,818.7546,851.39197,846.1539,757.50916,686.99634,-0.739990234375,-0.08074951171875,0.66168212890625,-2.0037841796875,0.441131591796875,2.355194091796875,1,1.0,1.0,1.0,1.0,66.86
2022-04-03 18:09:58.457,0.18231408,0.04976629,0.018155096,0.023834823,0.085862964,-0.4105718,0.12367465,-0.27576005,0.5576962,-0.1691544,0.14631681,0.2726461,0.22242607,-0.27783027,-0.3393564,0.3121278,-0.050390538,-0.34984893,-0.7138427,-0.19098102,829.2308,855.82416,840.9158,807.8755,875.56775,-0.73663330078125,-0.07269287109375,0.67034912109375,-2.03369140625,1.4654541015625,2.340240478515625,1,1.0,1.0,1.0,1.0,66.86
2022-04-03 18:09:59.475,0.63804364,-0.0075840405,-0.36400095,0.42576003,0.13783395,-0.28032,-0.33072037,0.012993768,0.6081598,-0.054129943,-0.29825795,0.34239048,0.21403027,-0.30523875,-0.47715887,0.22734627,-0.019315172,-0.5417765,-0.72951967,-0.09018736,836.08057,843.3333,850.989,806.26373,834.0659,-0.7279052734375,-0.07379150390625,0.67236328125,-2.400054931640625,0.61309814453125,0.964508056640625,1,1.0,1.0,1.0,1.0,66.86
2022-04-03 18:10:00.484,0.69276303,0.109633945,-0.23787536,0.45712513,0.19489653,-0.35326633,-0.15365343,0.11812239,0.5824802,-0.07894524,-0.3379623,0.034968283,0.31385493,-0.3025731,-0.5801816,0.15306623,0.071450554,-0.5814544,-0.65919816,0.048109524,838.0952,842.52747,841.7216,882.4176,1054.8718,-0.72528076171875,-0.0657958984375,0.67132568359375,-1.48040771484375,1.1663818359375,0.246734619140625,1,1.0,1.0,1.0,1.0,66.86
2022-04-03 18:10:01.502,1.248015,0.36155784,0.22169775,0.9234171,0.5112316,-0.09234085,0.16502191,0.14071707,0.24921699,0.1250215,0.055229384,-0.129609,0.3769923,-0.3555981,-0.5715314,0.09396613,0.09516496,-0.4039596,-0.8511243,0.09299942,835.2747,848.1685,841.31866,861.8681,1001.685,-0.71954345703125,-0.06689453125,0.683837890625,0.85235595703125,-1.024322509765625,-2.265472412109375,1,1.0,1.0,1.0,1.0,66.86
2022-04-03 18:10:02.522,0.5226637,0.16185339,0.00250244,0.59212106,0.10950342,-0.17760919,0.10036815,0.1095959,-0.25019068,0.1258622,0.09269229,0.3804812,0.43318522,-0.47521517,-0.5230775,0.23519002,0.1624254,-0.49413258,-0.92776406,0.040671904,845.7509,853.4066,841.7216,912.6374,1010.14655,-0.67254638671875,-0.07757568359375,0.72625732421875,-0.829925537109375,-0.142059326171875,0.3887939453125,1,1.0,1.0,1.0,1.0,66.86
2022-04-03 18:10:03.532,0.5311995,0.060111813,-0.1807386,-0.11040247,0.11182721,-0.508687,-0.36812815,-0.053034894,-0.102764376,-0.09277303,-0.28005305,0.37500826,0.27336198,-0.29056442,-0.539251,0.33718008,0.1879079,-0.55816656,-0.9507543,0.17646559,829.6337,842.1245,847.76556,884.0293,862.27106,-0.66290283203125,-0.0653076171875,0.73565673828125,-1.936492919921875,1.831817626953125,1.562652587890625,1,1.0,1.0,1.0,1.0,66.86
2022-04-03 18:10:04.548,0.28703892,0.013489712,-0.09008578,-0.3017797,0.028934179,-0.5041517,-0.46154118,-0.023757335,0.27805856,0.023697862,-0.13836168,0.365429,0.18309918,-0.3428559,-0.48522788,0.46035096,0.18120381,-0.63767344,-0.88772583,0.1537064,827.619,846.9597,846.9597,799.81683,647.9121,-0.64910888671875,-0.064697265625,0.72430419921875,-2.76641845703125,1.218719482421875,-0.179443359375,1,1.0,1.0,1.0,1.0,66.86
2022-04-03 18:10:05.561,0.016627317,0.08807835,-0.31697464,-0.08579495,-0.17406125,-0.43983305,-0.47803605,0.119041,0.26544794,-0.11594852,-0.4045507,0.5523415,0.1258274,-0.57115453,-0.67325276,0.19195685,0.16969033,-0.81865126,-0.8017857,0.12592542,817.9487,853.4066,848.1685,774.43225,664.43225,-0.63970947265625,-0.02764892578125,0.7659912109375,-8.86749267578125,-4.8748779296875,14.43023681640625,1,1.0,1.0,1.0,1.0,66.84
2022-04-03 18:10:06.571,0.1508043,-0.39576277,-0.47394225,0.004471174,0.1145522,-0.28292498,-0.28141776,0.28865835,0.15011528,-0.116622426,-0.4549676,0.52112144,0.39966518,-0.4709697,-0.48686898,0.44961596,0.37331328,-0.82608515,-0.84924096,0.2687911,826.8132,853.8095,852.6007,774.83514,626.9597,-0.62249755859375,-0.0205078125,0.7786865234375,1.472930908203125,5.465545654296875,-3.27484130859375,1,1.0,1.0,1.0,1.0,66.84
2022-04-03 18:10:07.584,0.38802764,0.08141095,-0.067480795,0.09157877,0.28940353,-0.101994365,-0.27642027,0.12941593,0.58163637,0.17071398,-0.19613235,0.47828877,0.356732,-0.30540976,-0.39382538,0.5769557,0.35611278,-0.67309535,-0.8895756,0.3846279,841.7216,846.9597,849.3773,796.99634,772.8205,-0.58251953125,-0.0115966796875,0.81561279296875,-2.691650390625,2.04864501953125,-2.67669677734375,1,1.0,1.0,1.0,1.0,66.84
2022-04-03 18:10:08.607,0.4050295,0.23832051,0.06586887,0.014075707,0.20177825,-0.058014043,-0.2216105,0.09344628,0.5967609,0.26065,-0.18008845,0.6588365,0.365106,-0.2518338,-0.3457416,0.6799481,0.2680746,-0.5315749,-0.7430116,0.4376568,785.31134,844.5421,848.97437,859.85345,1013.7729,-0.57977294921875,-0.02264404296875,0.796142578125,-9.5703125,0.785064697265625,15.611572265625,1,1.0,1.0,1.0,1.0,66.84
2022-04-03 18:10:08.758,,,,,,,,,,,,,,,,,,,,,,,,,,,,,,,,,,,,,,/muse/elements/blink
2022-04-03 18:10:09.621,0.48685476,0.14804493,0.44668868,-0.16149929,-0.27554408,-0.25183776,0.1553462,0.04211226,0.20454381,0.18246822,-0.1838354,0.58063674,0.33419836,-0.2557452,-0.34345978,0.7534495,0.34570694,-0.40488866,-0.62938625,0.5429947,857.03296,850.58606,840.10986,786.52014,783.69965,-0.5411376953125,0.1822509765625,0.8236083984375,-5.682373046875,0.411224365234375,13.794708251953125,1,1.0,1.0,1.0,1.0,66.84
2022-04-03 18:10:10.644,0.5260732,0.12968554,0.27064747,0.50283396,0.5549472,-0.3828929,-0.044752225,0.67078805,0.92904687,0.012510215,-0.1582084,1.1912342,0.98016584,-0.31027028,-0.43750852,1.0058427,1.0607573,-0.2735046,-0.46321994,0.9949172,871.53845,851.79486,842.9304,837.6923,917.8755,-0.6005859375,0.20257568359375,0.7498779296875,-7.117919921875,10.108642578125,18.131256103515625,1,1.0,1.0,1.0,1.0,66.84
2022-04-03 18:10:11.649,0.8378031,-0.053361576,0.24192718,0.8404795,0.90179384,-0.41447338,-0.014133921,0.817879,1.0530592,0.027656334,-0.11683077,1.2206149,1.1160139,-0.176994,-0.29501748,1.0520136,1.1739308,-0.25526226,-0.22771487,1.1044676,822.7839,850.58606,836.08057,884.0293,1019.41394,-0.7474365234375,0.20867919921875,0.62811279296875,-0.844879150390625,10.24322509765625,-0.441131591796875,1,1.0,1.0,1.0,1.0,66.84
2022-04-03 18:10:12.672,0.8914776,-0.22700442,-0.016543997,0.90620023,0.7245203,-0.3769046,-0.14339137,0.75761706,1.0132405,-0.06539242,-0.28557408,1.1542153,1.1426872,-0.15284911,-0.11127126,1.0100745,1.1005085,-0.3089937,-0.24065414,0.9338332,846.1539,834.0659,848.1685,895.7143,853.00366,-0.77264404296875,0.2381591796875,0.58837890625,-3.46923828125,0.755157470703125,2.280426025390625,1,1.0,1.0,1.0,1.0,66.84
2022-04-03 18:10:13.681,0.54304576,-0.37201703,0.2371986,0.5547034,0.2370768,-0.60651773,-0.027849924,0.3762556,0.6887094,-0.12225689,-0.06539366,0.4786875,1.0047578,-0.098313086,-0.119078435,0.6200037,1.0749174,-0.26035824,-0.21264791,0.6164806,865.89746,841.31866,848.1685,848.97437,785.7143,-0.6781005859375,0.23162841796875,0.68560791015625,-9.4207763671875,-13.734893798828125,7.200164794921875,1,1.0,1.0,1.0,1.0,66.84
2022-04-03 18:10:14.705,0.4499865,0.13455789,0.48505318,0.9937387,0.2120879,-0.31200105,0.10855605,0.6030695,0.641842,0.02346616,0.22428572,0.7277548,0.91780275,-0.2078189,-0.13225822,0.8546695,1.1258568,-0.25199857,-0.17732807,0.90220284,855.82416,860.2564,852.6007,925.9341,938.4249,-0.3720703125,0.170654296875,0.90460205078125,-13.420867919921875,-17.60040283203125,4.433746337890625,1,1.0,1.0,1.0,1.0,66.84
2022-04-03 18:10:15.725,1.2612551,0.2662444,0.3328242,1.2723219,1.0376323,-0.081640705,-0.0700042,0.8176668,1.3336251,0.041666426,0.44059148,1.6485828,1.4557259,-0.24718998,-0.10745604,1.3758589,1.7243046,-0.18920681,0.0685228,1.4264089,837.28937,845.7509,850.989,802.23444,650.7326,0.22491455078125,4.2724609375E-4,0.97174072265625,-5.5926513671875,-16.964874267578125,14.833984375,1,1.0,1.0,1.0,1.0,66.83
2022-04-03 18:10:16.739,1.2780393,0.34836823,0.7159998,1.2142357,1.0583875,0.12786388,-0.046883345,0.7233714,1.3132981,0.11339339,0.41767445,1.6472402,1.4616407,-0.14693321,0.09790721,1.5009544,1.7579322,-0.053707376,0.1640921,1.4072326,863.8828,846.55676,833.2601,833.663,928.3516,0.41973876953125,-0.06658935546875,0.89801025390625,-2.27294921875,-3.66363525390625,0.545806884765625,1,1.0,1.0,1.0,1.0,66.83
2022-04-03 18:10:17.327,,,,,,,,,,,,,,,,,,,,,,,,,,,,,,,,,,,,,,/muse/elements/blink
2022-04-03 18:10:17.766,1.1472367,-0.05321227,0.6563453,0.78502125,0.8466638,-0.07951864,-0.25330722,0.66763085,1.3202997,-0.09789667,0.086886086,1.375399,1.312557,-0.14385442,-0.04767212,1.5075829,1.7644261,-0.34194297,-0.1184943,1.4173822,871.9414,843.73627,833.2601,803.44324,861.06226,0.20263671875,-0.118896484375,0.97137451171875,6.3702392578125,24.127655029296875,5.93658447265625,1,1.0,1.0,1.0,1.0,66.83
2022-04-03 18:10:18.787,1.019558,0.13184623,0.45617914,1.1070194,1.0975369,-0.12532227,-0.25143304,0.9600374,1.0277402,0.0064737326,0.07021817,1.2549504,0.99029464,-0.12152548,-0.05502765,1.4404879,0.8496804,-0.11629351,-0.03557895,1.6433605,830.4396,846.1539,844.5421,813.91943,892.0879,0.04034423828125,-0.0765380859375,0.98974609375,-2.87109375,0.91217041015625,-1.084136962890625,1,1.0,1.0,1.0,1.0,66.83
2022-04-03 18:10:19.790,0.9772936,-0.08982332,0.039098606,0.97877157,0.786624,-0.40309626,-0.44694978,0.51220864,0.8222822,-0.19360822,-0.04525659,1.1887795,0.7583584,-0.017474314,-0.13321647,1.2458364,0.714406,-0.28776014,-0.12196492,1.305841,856.63007,849.7802,840.10986,846.9597,982.3443,0.08123779296875,-0.08447265625,0.97564697265625,-2.37762451171875,1.323394775390625,-0.351409912109375,1,1.0,1.0,1.0,1.0,66.83
2022-04-03 18:10:20.809,0.5897482,0.13610323,0.03343468,0.7120446,0.3213217,-0.30708826,-0.31742194,0.4622696,0.38825426,-0.26693764,-0.24935405,1.0967299,0.57436514,-0.031864755,-0.05448893,1.3121119,0.50425935,-0.40900058,-0.18890944,1.1634315,846.55676,845.34796,840.5128,875.56775,967.03296,0.0906982421875,-0.08892822265625,0.98455810546875,-2.99072265625,2.49725341796875,-1.861724853515625,1,1.0,1.0,1.0,1.0,66.83
2022-04-03 18:10:21.814,0.05499127,0.12078841,-0.18768357,0.19200562,-0.05921575,-0.35480297,-0.53738093,0.1338622,0.30320492,-0.21480463,-0.1355086,1.1407262,0.6571827,-0.0561188,-0.035649374,1.0412775,0.5696361,-0.3924365,-0.09263589,1.1797636,851.39197,854.21246,846.55676,905.38464,944.4689,0.08489990234375,-0.05633544921875,0.986083984375,-2.1533203125,5.1739501953125,-4.3963623046875,1,1.0,1.0,1.0,1.0,66.83
2022-04-03 18:10:22.830,0.8631013,0.11389084,-0.19116354,0.63615733,0.5205291,-0.3004543,-0.46544644,0.35298523,0.91971534,-0.16244034,-0.23075439,1.1151044,0.5972577,0.08845405,-0.062048048,1.1129854,0.3499393,-0.24570602,0.023103282,1.1559517,836.4835,849.3773,842.1245,901.3553,871.13556,-0.17181396484375,0.01837158203125,0.9722900390625,0.201873779296875,7.117919921875,-1.099090576171875,1,1.0,1.0,1.0,1.0,66.83
2022-04-03 18:10:23.839,0.8900981,-0.30258104,-0.19089341,0.9929693,0.42364284,-0.4911695,-0.19147623,0.8329475,0.8504782,-0.17359683,-0.11477487,1.3194003,0.5983547,0.14937106,0.100927554,1.44128,0.46431106,0.08733675,0.24119754,1.2951324,838.9011,848.1685,844.1392,882.8205,847.76556,-0.19091796875,0.0335693359375,0.9757080078125,-2.27294921875,1.24114990234375,0.2392578125,1,1.0,1.0,1.0,1.0,66.83
2022-04-03 18:10:24.847,0.5615677,-0.11037487,-0.2299063,0.8676749,0.22501203,-0.2429535,-0.27921057,0.60630304,0.53014255,0.017354768,-0.06882023,1.249636,0.5227243,-0.007430073,0.09452765,1.2653182,0.5042803,0.098251745,0.292679,1.0227778,835.2747,844.5421,842.1245,805.05493,763.95605,-0.19805908203125,0.0313720703125,0.9752197265625,-1.4654541015625,1.368255615234375,-0.43365478515625,1,1.0,1.0,1.0,1.0,66.80
2022-04-03 18:10:25.864,0.88791984,0.17044716,-0.2786969,0.75668967,0.7642531,-0.16775566,-0.3578386,0.5443474,0.974322,0.34627357,0.21002457,1.160532,0.4500106,0.12430298,0.04995103,0.989987,0.15361166,0.030015662,0.060772162,0.91596246,842.1245,838.49817,846.9597,861.8681,770.40295,-0.42547607421875,0.0611572265625,0.89556884765625,2.145843505859375,13.936767578125,-7.04315185546875,1,1.0,1.0,1.0,1.0,66.80
2022-04-03 18:10:26.886,1.0431396,-0.07285889,-0.32446873,0.844142,0.9326964,-0.21209998,-0.42066392,0.6636202,1.0126708,0.3648148,0.18899155,1.2191244,0.52792543,0.44499764,0.17154853,0.8600388,0.3829852,0.2689243,0.18287016,0.78090507,851.39197,850.58606,839.707,810.293,710.3663,-0.5040283203125,0.085693359375,0.8587646484375,-1.375732421875,0.25421142578125,-1.136474609375,1,1.0,1.0,1.0,1.0,66.80
2022-04-03 18:10:27.899,0.4266709,-0.10051126,0.17965227,0.40892673,0.26952818,-0.2478594,0.13275339,0.38537556,0.9399036,-0.101994805,0.11989354,0.8874211,0.8482919,0.46738493,0.16710876,0.8254605,0.5715208,0.14927754,0.0400082,0.6872896,838.9011,848.5714,847.3626,817.1429,835.2747,-0.47283935546875,-0.041015625,0.87408447265625,14.51995849609375,-2.85614013671875,-34.026947021484375,1,1.0,1.0,1.0,1.0,66.80
2022-04-03 18:10:28.907,0.8505896,0.48728418,0.5344099,0.83892065,0.4248847,0.14395273,0.38097844,0.4687318,1.0897281,0.36327508,0.4845992,0.8764403,1.1031432,0.1483546,0.16840954,0.65109915,0.81528777,-0.12120826,-0.18738286,0.5270647,862.674,838.0952,851.79486,917.8755,993.6264,-0.2900390625,0.0419921875,0.94940185546875,9.64508056640625,-16.9873046875,10.21331787109375,1,1.0,1.0,1.0,1.0,66.80
2022-04-03 18:10:29.936,0.8970553,0.42217743,0.49669722,1.10236,0.26677838,0.014513175,0.22926077,0.69312376,0.67223954,0.406132,0.47101003,1.1393987,1.0249768,-0.22529082,-0.008451883,0.57518953,0.94371265,-0.24475172,-0.368788,0.3459,861.8681,859.45056,824.7985,843.3333,1005.31134,-0.17034912109375,0.18707275390625,0.9718017578125,6.220703125,1.12152099609375,-74.25216674804688,1,1.0,1.0,1.0,1.0,66.80
2022-04-03 18:10:30.947,0.82410294,1.1846867,1.0462084,1.1632919,0.24811003,0.49274558,0.46788138,0.8964525,0.64963996,0.294831,0.28976154,1.1391385,0.9966856,0.008201228,0.034187652,0.7933318,0.9610767,-0.09858277,-0.20650657,0.46886697,857.4359,856.63007,860.65936,877.1795,1004.10254,-0.32568359375,0.14459228515625,0.93133544921875,26.251068115234375,3.820648193359375,-96.68258666992188,1,1.0,1.0,1.0,1.0,66.80
2022-04-03 18:10:31.965,1.1549455,0.9606274,1.0713435,1.1632919,0.9049841,0.36419752,0.68069595,0.8964525,1.260076,0.21204104,0.5322018,1.1391385,1.57247,0.08913827,0.05822942,0.7933318,1.3013579,-0.1533864,-0.27024534,0.46886697,872.74725,847.76556,858.6447,911.02563,981.53845,-0.29986572265625,0.02972412109375,0.9486083984375,-3.349609375,-12.733001708984375,0.007476806640625,1,1.0,1.0,1.0,1.0,66.80
2022-04-03 18:10:32.974,1.1549455,0.49625346,0.8808635,1.1632919,0.9049841,0.11235824,0.5661042,0.8964525,1.260076,0.26625904,0.49879998,1.1391385,1.57247,-0.052026138,0.105589315,0.7933318,1.3013579,-0.13744782,-0.3198301,0.46886697,828.022,862.27106,852.6007,815.9341,719.6337,-0.1231689453125,0.11676025390625,0.98699951171875,-0.34393310546875,6.362762451171875,2.1832275390625,1,1.0,1.0,1.0,1.0,66.80
2022-04-03 18:10:34.006,1.7077979,0.31958148,0.48675835,1.1632919,1.6411355,-0.08285699,-0.21626411,0.8964525,1.5979706,0.43822053,0.29203174,1.1391385,1.3546361,0.28718993,0.2690986,0.7933318,1.6354421,0.24022003,0.23056798,0.46886697,849.7802,857.8388,827.619,858.24176,958.1685,-0.76348876953125,-0.01861572265625,0.61578369140625,-12.747955322265625,13.361053466796875,2.654266357421875,1,1.0,1.0,1.0,1.0,66.80
2022-04-03 18:10:35.015,1.355786,0.08921431,0.14142102,1.1632919,1.5044435,-0.16935441,-0.023777587,0.8964525,1.8447847,0.41600654,0.16392283,1.1391385,1.4854838,0.39576367,0.5793058,0.7933318,1.5456346,0.43434498,0.66548723,0.46886697,835.6777,829.6337,842.1245,804.2491,766.77655,-0.73101806640625,-0.0169677734375,0.677978515625,2.863616943359375,-15.71624755859375,-4.11224365234375,1,1.0,1.0,1.0,1.0,66.75
2022-04-03 18:10:36.047,0.62103885,0.5644673,0.28592393,1.1632919,0.9928982,-0.05027504,0.072384365,0.8964525,1.2891225,0.19957395,0.07610793,1.1391385,1.5332435,0.108862616,0.1972131,0.7933318,1.193312,0.030559555,0.13342096,0.46886697,836.4835,853.8095,845.34796,805.8608,642.27106,-0.167724609375,0.0653076171875,0.98687744140625,0.934600830078125,-15.252685546875,19.21539306640625,1,1.0,1.0,1.0,1.0,66.75
2022-04-03 18:10:37.071,0.9404209,0.52969754,0.2689456,1.278382,0.68725467,-0.08608155,0.02927903,0.8544377,0.9319523,0.29752895,-0.12802176,0.9464016,0.8704895,-0.071980715,-0.43980458,0.711855,0.43399617,-0.34889847,-0.6331375,0.31601614,893.2967,839.304,850.58606,894.10254,819.15753,0.01214599609375,0.141845703125,0.9752197265625,-0.471038818359375,9.338531494140625,37.78778076171875,1,1.0,1.0,1.0,1.0,66.75
2022-04-03 18:10:38.077,0.9630696,0.58612937,0.4454875,0.90852636,0.70724607,0.26672235,0.38109878,0.8732369,1.0692015,0.16627823,0.11696357,1.2810736,0.9663512,-0.052004836,-0.2577232,1.2216209,0.5023376,-0.6763352,-0.769926,0.58571285,819.15753,846.55676,851.79486,804.65204,809.89014,-0.32550048828125,0.2457275390625,0.9293212890625,13.660125732421875,6.093597412109375,-13.704986572265625,1,1.0,1.0,1.0,1.0,66.75
2022-04-03 18:10:39.099,0.6463055,0.5655275,0.36629313,0.6216023,0.33696938,0.14171052,-0.11060603,0.59130144,1.0849328,0.25011125,0.13679288,1.446009,1.0816202,-0.07848345,-0.22764803,1.481739,0.7272358,-0.56810445,-0.7080238,0.8344184,869.12085,856.2271,843.73627,889.67035,1004.90845,-0.33782958984375,0.41937255859375,0.88116455078125,-8.037567138671875,9.473114013671875,27.806243896484375,1,1.0,1.0,1.0,1.0,66.75
2022-04-03 18:10:40.143,0.8320112,0.45749566,0.18364996,0.44489303,0.24532215,0.1748753,-0.28728923,0.542652,0.97645324,0.13092586,0.29118198,1.6435692,1.1367804,-0.05076308,-0.40752453,1.4788809,0.8750121,-0.41954845,-0.64953554,1.0974356,871.13556,838.0952,839.304,885.2381,894.90845,-0.321533203125,0.2666015625,0.92864990234375,1.48040771484375,17.024688720703125,-4.6954345703125,1,1.0,1.0,1.0,1.0,66.75
2022-04-03 18:10:41.157,1.023559,1.060235,0.9192144,0.92640454,0.26704034,0.29857564,0.06856192,0.6621719,0.4934233,0.23632054,0.23937267,1.6665418,1.186718,0.0019725622,-0.2609269,1.5519401,0.92738247,-0.41863686,-0.7911212,1.2278953,882.01465,863.47986,859.0476,788.1319,794.57874,-0.32318115234375,0.33966064453125,0.8853759765625,2.415008544921875,-4.2767333984375,7.28240966796875,1,1.0,1.0,1.0,1.0,66.75
2022-04-03 18:10:42.177,1.023559,1.2123848,0.98614424,1.2750554,0.26704034,0.2366676,0.13233317,0.82170606,0.4934233,0.28752804,0.09027302,1.4974847,1.186718,-0.2104669,-0.3093061,1.4141839,0.92738247,-0.49429694,-0.75026184,0.80305606,830.84247,819.9634,834.87177,861.06226,834.87177,-0.311767578125,0.38507080078125,0.87506103515625,1.8841552734375,19.87335205078125,-4.747772216796875,1,1.0,1.0,1.0,1.0,66.75
2022-04-03 18:10:43.198,1.023559,1.0655676,0.92626935,1.1644945,0.26704034,0.19682547,0.093569055,1.0141348,0.4934233,0.44079596,0.33252412,1.5367513,1.186718,0.090472706,-0.27390057,1.5321316,0.92738247,-0.100292794,-0.5727649,1.1735076,866.7033,869.12085,853.8095,859.0476,755.4945,-0.42327880859375,0.32318115234375,0.84588623046875,-7.16278076171875,2.026214599609375,2.85614013671875,1,1.0,1.0,1.0,1.0,66.75
2022-04-03 18:10:44.151,,,,,,,,,,,,,,,,,,,,,,,,,,,,,,,,,,,,,,/muse/elements/blink
2022-04-03 18:10:44.220,1.023559,1.2340047,1.1738229,1.2313987,0.26704034,-0.09554036,-0.07697453,1.0597689,0.4934233,0.27157223,0.18252541,1.4830064,1.186718,-0.17027676,-0.39303812,1.493987,0.92738247,-0.38233644,-0.5455276,1.1132118,889.2674,843.3333,857.4359,818.3516,813.91943,-0.34344482421875,0.24652099609375,0.885498046875,-27.75390625,-3.5589599609375,28.912811279296875,1,1.0,1.0,1.0,1.0,66.75
2022-04-03 18:10:45.222,1.023559,0.97720945,0.7016094,1.2313987,0.26704034,-0.017662348,0.11859228,1.0597689,0.4934233,-0.014053866,-0.3366453,1.4830064,1.186718,-0.3441269,-0.327139,1.493987,0.92738247,-0.61401445,-0.30603197,1.1132118,843.73627,854.61536,841.7216,861.4652,944.0659,-0.1937255859375,0.17681884765625,0.965576171875,-5.72723388671875,-7.349700927734375,2.235565185546875,1,1.0,1.0,1.0,1.0,66.73
2022-04-03 18:10:46.229,1.2539879,0.27914855,0.36353773,0.7485257,0.9121928,-0.06291259,-0.14675494,0.5533553,0.8782412,-0.017547976,0.1457522,1.0042701,0.976303,-0.25421965,-0.34203467,0.96734697,0.6767203,-0.51742494,-0.24838193,0.5825537,826.4103,861.8681,851.79486,793.7729,790.54944,-0.0177001953125,0.048583984375,0.99664306640625,-2.093505859375,1.8243408203125,5.764617919921875,1,1.0,1.0,1.0,1.0,66.73
2022-04-03 18:10:47.247,1.1978755,0.30254576,0.034270823,0.55568725,0.75860715,-0.13438147,-0.19723418,0.20347388,0.9565259,0.18841474,0.23461807,0.91475886,0.8110893,-0.24067128,-0.0146807665,0.9466272,0.3698849,-0.43432963,-0.15489131,0.48384452,840.10986,847.76556,851.39197,838.9011,938.022,-0.06304931640625,0.06396484375,0.99566650390625,-2.49725341796875,1.7047119140625,-0.22430419921875,1,1.0,1.0,1.0,1.0,66.73
2022-04-03 18:10:48.259,0.36784846,-0.059749506,-0.14580777,-0.16700895,0.01528195,-0.6106441,-0.3493125,-0.104979955,0.7112686,0.01370806,-0.07149868,0.8890859,0.4949251,-0.3273424,0.041713137,0.750996,-0.13834319,-0.43114585,-0.15352154,0.3970123,850.58606,853.8095,847.76556,842.1245,897.72894,-0.06414794921875,0.0733642578125,0.98895263671875,-2.100982666015625,1.727142333984375,0.829925537109375,1,1.0,1.0,1.0,1.0,66.73
2022-04-03 18:10:49.291,-0.29066384,-0.13041873,-0.34484938,0.0727515,0.07717484,-0.27170125,-0.43938452,-0.0025534148,0.12726279,-0.34168774,-0.27383152,0.86183846,0.16959964,-0.1840009,-0.23172867,0.6051248,-0.24504009,-0.5645312,-0.3851921,0.20591736,840.5128,855.0183,848.1685,788.93774,677.326,-0.062744140625,0.0721435546875,0.9908447265625,-2.49725341796875,1.368255615234375,0.336456298828125,1,1.0,1.0,1.0,1.0,66.73
2022-04-03 18:10:50.292,-0.29969066,-0.16304238,-0.47378337,-0.09408079,-0.2396698,-0.32480207,-0.47183892,-0.38039035,0.37452093,-0.40561718,-0.31554967,0.71386987,0.084522076,-0.21628113,-0.1443574,0.495999,-0.2869484,-0.6823239,-0.5476768,0.26674613,845.7509,844.94507,848.1685,908.20514,970.65936,-0.05810546875,0.07196044921875,0.98834228515625,-1.92901611328125,1.338348388671875,1.21124267578125,1,1.0,1.0,1.0,1.0,66.73
2022-04-03 18:10:51.299,0.114631556,-0.17502262,-0.2838216,0.14773321,0.0073961797,-0.20619173,-0.2846768,0.12715513,0.54986215,0.33369002,0.5100431,0.7760834,0.42141548,0.10542538,0.15881093,0.4647732,-0.101363726,-0.3649091,-0.33154285,0.21635169,841.7216,855.82416,840.10986,863.47986,784.5055,-0.064208984375,0.06787109375,0.98748779296875,-2.52716064453125,2.220611572265625,-0.471038818359375,1,1.0,1.0,1.0,1.0,66.73
2022-04-03 18:10:52.302,0.28507486,-0.10835524,-0.12892589,0.15133044,0.21152678,-0.11158273,-0.16378781,0.1144457,0.5576089,0.3594595,0.51978534,0.6770944,0.6684561,0.26327968,0.26355785,0.64085597,0.17011139,-0.23129663,-0.17780724,0.3149181,842.9304,853.00366,836.8865,875.9707,801.02563,-0.06463623046875,0.07904052734375,0.99053955078125,-1.5850830078125,1.4654541015625,1.428070068359375,1,1.0,1.0,1.0,1.0,66.73
2022-04-03 18:10:53.311,0.016670136,-0.31461522,-0.19399682,0.12485474,-0.21965432,-0.79965687,-0.64315665,-0.353885,0.08135329,-0.14568424,-0.4987451,0.26853856,-0.08721819,-0.121201396,-0.13811643,0.49210685,-0.15394175,-0.3905451,-0.30053985,0.25254634,850.58606,855.0183,851.79486,844.94507,948.9011,-0.06329345703125,0.07830810546875,0.989990234375,-2.51220703125,1.45050048828125,0.904693603515625,1,1.0,1.0,1.0,1.0,66.73
2022-04-03 18:10:54.324,1.0356946,0.37171316,0.30752796,1.0348812,0.5432772,0.098242454,0.09746192,0.52835613,0.35777286,0.59614986,0.5783636,0.41880724,0.08741949,-0.080379754,-0.17107096,0.36714214,-0.17931084,-0.33624935,-0.29809144,0.121150255,842.9304,846.9597,842.9304,813.91943,685.78754,-0.05731201171875,0.0709228515625,0.988525390625,-2.37762451171875,1.712188720703125,0.83740234375,1,1.0,1.0,1.0,1.0,66.73
2022-04-03 18:10:55.330,1.4051273,1.0366051,1.0342857,1.1119117,1.1645082,0.9995054,1.0374249,1.1662678,1.1947534,1.1990696,1.1888884,1.2795429,0.5057883,0.30959082,0.06970234,0.6689721,0.046939507,-0.21413027,-0.3008647,0.22666317,847.76556,854.21246,838.0952,832.8571,745.42126,-0.0517578125,0.07830810546875,0.99237060546875,-1.83929443359375,1.24114990234375,1.1962890625,1,1.0,1.0,1.0,1.0,66.69
2022-04-03 18:10:56.363,0.73395234,0.5798104,0.70934,0.6359759,0.47843015,0.16294198,0.211744,0.7262919,0.805637,0.39996392,0.36789036,0.89730996,0.32425353,-0.040305737,-0.09389166,0.689985,0.11523448,-0.37266243,-0.35044125,0.29287994,828.8278,845.7509,853.00366,793.7729,652.74725,-0.03839111328125,0.05096435546875,0.99310302734375,-2.743988037109375,-2.519683837890625,-20.015411376953125,1,1.0,1.0,1.0,1.0,66.69
2022-04-03 18:10:57.385,0.608622,0.7908338,0.7391261,0.590349,0.41620997,0.24698696,0.15103248,0.69436777,0.7859878,0.18285716,0.2697558,0.8263887,0.2943252,-0.15245217,-0.24529393,0.7340523,0.17054594,-0.4591441,-0.46426517,0.31930512,876.3736,830.84247,860.65936,962.6007,982.74725,0.00146484375,0.06866455078125,0.98712158203125,-0.067291259765625,-0.231781005859375,-14.303131103515625,1,1.0,1.0,1.0,1.0,66.69
2022-04-03 18:10:58.141,,,,,,,,,,,,,,,,,,,,,,,,,,,,,,,,,,,,,,/muse/elements/blink
2022-04-03 18:10:58.401,0.48784518,1.0388772,1.1285485,-0.09974953,0.051243093,0.5476587,0.42462975,0.39189446,0.2766545,0.3507913,0.21919665,0.35994038,0.3168013,-0.06250989,-0.22635493,0.6663858,0.17054743,-0.49549687,-0.66266435,0.17899108,858.24176,855.0183,841.31866,803.8461,763.5531,-0.02117919921875,0.087646484375,0.990966796875,-2.385101318359375,1.577606201171875,1.114044189453125,1,1.0,1.0,1.0,1.0,66.69
2022-04-03 18:10:59.440,0.60571307,0.035198696,0.9147765,0.5306451,0.19112611,-0.06251698,0.366314,0.07651886,0.50221324,0.15165894,0.21667247,-0.12752339,0.3552287,-0.002938593,-0.058143847,0.22002292,0.010190899,-0.3824456,-0.5249994,-0.13021399,830.84247,845.7509,846.55676,829.6337,892.0879,-0.0264892578125,0.094970703125,0.99017333984375,-1.435546875,1.861724853515625,1.51031494140625,1,1.0,1.0,1.0,1.0,66.69
2022-04-03 18:11:00.449,0.5735677,-0.026986182,0.6017095,0.24748126,0.32899445,-0.09778432,0.15026058,-0.05205863,0.60269576,0.11233618,0.086378194,0.21217445,0.3994559,-0.09694074,-0.01962777,0.11096563,0.14254943,-0.28363594,-0.6009908,-0.18040282,848.5714,855.42126,842.9304,879.19415,1029.8901,-0.03411865234375,0.0985107421875,0.98907470703125,-2.086029052734375,1.86920166015625,0.306549072265625,1,1.0,1.0,1.0,1.0,66.69
2022-04-03 18:11:01.451,0.37490234,0.15242155,0.40531826,0.079838715,-0.037338916,-0.46533367,-0.04637567,-0.2478832,0.4786102,-0.15692435,0.06902564,0.34635532,0.3606587,0.0846919,-0.014471385,0.054682832,0.12240594,-0.10989973,-0.3826539,-0.05852077,845.34796,852.6007,846.9597,804.2491,659.59705,-0.03662109375,0.09521484375,0.98907470703125,-1.98883056640625,2.011260986328125,0.49346923828125,1,1.0,1.0,1.0,1.0,66.69
2022-04-03 18:11:02.464,0.41164434,0.26306754,0.13302822,0.027003389,0.10651516,-0.16948555,-0.2717818,-0.22492182,0.56470543,0.1280463,0.09221698,0.43368345,0.41194344,-0.018120581,-0.056092422,0.063868076,0.03829182,-0.23032884,-0.34372932,-0.043126326,855.42126,848.97437,841.31866,908.60803,1016.1905,-0.03472900390625,0.1041259765625,0.98638916015625,-1.86920166015625,1.7645263671875,0.46356201171875,1,1.0,1.0,1.0,1.0,66.69
2022-04-03 18:11:03.481,0.34371787,0.041270826,0.22201434,-0.18432923,0.27570057,0.105683215,-0.34319526,-0.3951688,0.5701722,0.0760633,0.008459071,0.062192753,0.21081348,-0.35132542,-0.24545805,0.041818988,0.08046639,-0.54043466,-0.4236915,-0.16376704,850.58606,843.73627,846.1539,890.87915,884.0293,-0.03802490234375,0.09991455078125,0.98773193359375,-2.534637451171875,1.757049560546875,0.351409912109375,1,1.0,1.0,1.0,1.0,66.69
2022-04-03 18:11:04.514,0.92714375,0.108422466,0.31615895,0.7697562,0.5060264,-0.07791788,-0.17437284,0.43146795,0.6706897,-0.11744822,-0.20086078,0.77572966,0.23440845,-0.10403185,-0.180793,0.09788642,-0.03135783,-0.56758606,-0.43100715,-0.216513,845.34796,850.989,849.3773,851.79486,704.7253,-0.04559326171875,0.1046142578125,0.98504638671875,-1.7047119140625,3.30474853515625,2.1533203125,1,1.0,1.0,1.0,1.0,66.69
2022-04-03 18:11:05.054,,,,,,,,,,,,,,,,,,,,,,,,,,,,,,,,,,,,,,/muse/elements/blink
2022-04-03 18:11:05.557,1.0602235,0.10543084,0.32839987,1.0539689,0.62698257,-0.17801929,-0.07085058,0.7803196,0.9343091,-0.15905519,-0.22367606,0.91005033,0.51813376,0.019072143,-0.09061112,0.48019055,0.115821645,-0.3856735,-0.21022797,0.12414458,845.34796,840.5128,836.4835,895.31134,1021.4286,-0.08843994140625,0.124755859375,0.98052978515625,-1.457977294921875,6.11602783203125,1.203765869140625,1,1.0,1.0,1.0,1.0,66.67
2022-04-03 18:11:06.571,0.8572445,0.03759313,0.08220338,1.0295177,0.7629397,-0.5277327,-0.04141092,0.8647486,0.9123505,-0.23849021,-0.19415423,0.7275073,0.49703833,0.06568788,-0.0076347385,0.6026163,0.16851641,-0.20410797,-0.05664189,0.22887485,846.55676,859.45056,851.79486,805.05493,788.5348,-0.233154296875,0.10284423828125,0.95904541015625,-1.906585693359375,0.949554443359375,1.099090576171875,1,1.0,1.0,1.0,1.0,66.67
2022-04-03 18:11:07.573,0.4692854,0.33593348,0.08699963,0.58845335,0.43690085,-0.41508994,-0.31566417,-0.023211528,0.6291173,-0.05653488,0.082083724,-0.23333308,0.25034,-0.00993705,-0.10269622,0.115971275,0.17971727,-0.2776062,-0.30374402,0.048702907,836.4835,841.7216,850.989,792.96704,722.8571,-0.223876953125,0.1134033203125,0.96343994140625,-2.056121826171875,1.233673095703125,0.7476806640625,1,1.0,1.0,1.0,1.0,66.67
2022-04-03 18:11:08.595,0.40211278,0.34058434,0.09633125,0.42382795,0.11784895,-0.20138337,-0.37742013,0.10421607,0.7280352,0.054913696,-0.071055755,0.48372683,0.25702003,-0.12639734,-0.17344111,0.040910576,-0.07404082,-0.31183863,-0.43130058,-0.169135,831.6484,840.9158,845.34796,826.4103,870.32965,-0.2227783203125,0.106201171875,0.962158203125,-2.1832275390625,1.9439697265625,0.777587890625,1,1.0,1.0,1.0,1.0,66.67
2022-04-03 18:11:09.617,0.552347,0.17335926,0.4684371,0.04628852,0.3689795,-0.100760125,0.11764336,0.23292068,0.80892134,0.24799286,-0.020842053,0.550383,0.33814454,-0.042200945,-0.21970326,0.17003074,-0.073527634,-0.32230654,-0.28207394,-0.20020977,836.4835,841.31866,843.3333,843.73627,699.4872,-0.22247314453125,0.10809326171875,0.96124267578125,-2.46734619140625,1.398162841796875,0.657958984375,1,1.0,1.0,1.0,1.0,66.67
2022-04-03 18:11:10.639,0.24104181,-0.034128837,0.37605703,0.20025228,0.082392305,-0.26122078,0.04407586,0.4399086,0.59634584,0.34904924,-0.11338254,0.4126384,0.17092165,-0.07415895,-0.24924546,0.14055611,-0.053718224,-0.51670957,-0.3888799,-0.30274373,841.31866,835.2747,849.3773,891.685,1002.49084,-0.21630859375,0.10906982421875,0.96661376953125,-2.10845947265625,1.562652587890625,0.55328369140625,1,1.0,1.0,1.0,1.0,66.67
2022-04-03 18:11:11.645,0.57320225,0.05842141,-0.4232248,0.26098347,0.23970732,-0.34094572,-0.6410077,0.336376,0.5891007,-0.08224068,-0.23889218,0.45034042,0.19683361,-0.041233085,-0.16999708,0.10922934,-0.17194124,-0.5017519,-0.45547137,-0.28754482,873.5531,855.0183,847.3626,921.0989,986.3736,-0.21539306640625,0.1083984375,0.964599609375,-1.936492919921875,1.68975830078125,1.443023681640625,1,1.0,1.0,1.0,1.0,66.67
2022-04-03 18:11:12.652,0.6643947,-0.083143115,-0.24779868,0.5093953,0.6797173,-0.15537456,-0.34133965,0.63552475,1.0807599,-0.048848096,-0.19845863,0.8810854,0.15664889,-0.103866175,-0.14465019,0.13530295,0.018864166,-0.394323,-0.32006922,-0.33524743,852.6007,843.3333,842.1245,883.6264,909.41394,-0.21466064453125,0.113525390625,0.96368408203125,-2.160797119140625,1.487884521484375,1.069183349609375,1,1.0,1.0,1.0,1.0,66.67
2022-04-03 18:11:13.657,0.7929384,-0.3163003,-0.2626048,0.62352777,0.87329566,-0.20300938,-0.34339875,0.7307395,1.0807599,-0.14387457,-0.19720355,0.8810854,0.2561183,-0.046212185,-0.20968455,0.12769288,0.059829954,-0.39156497,-0.3929648,-0.32049176,844.5421,849.3773,842.1245,825.2015,843.3333,-0.2147216796875,0.10760498046875,0.9658203125,-2.49725341796875,1.592559814453125,0.067291259765625,1,1.0,1.0,1.0,1.0,66.67
2022-04-03 18:11:14.674,0.29304892,-0.39425927,-0.3570492,0.06136904,0.20127882,-0.56965965,-0.63374895,0.043123532,0.2838101,-0.22730811,-0.2358903,0.1858863,0.24606936,-0.0614075,-0.28598103,0.054540206,-0.27290764,-0.4225483,-0.4291457,-0.15776335,836.08057,841.7216,845.34796,803.8461,646.30035,-0.22174072265625,0.075927734375,0.96746826171875,-7.514190673828125,2.093505859375,-7.170257568359375,1,1.0,1.0,1.0,1.0,66.64
2022-04-03 18:11:15.696,0.2978691,0.28839642,0.4469793,0.6097166,0.14238098,0.20718707,0.14039594,0.4765831,0.4307007,0.17286976,0.23533271,0.6159098,0.38111818,-0.017750029,-0.21495971,0.06749345,0.12742011,-0.49557054,-0.25694883,-0.11363126,850.18317,837.28937,849.3773,878.7912,867.9121,-0.2052001953125,-0.02667236328125,0.969482421875,-1.51031494140625,-0.10467529296875,-10.048828125,1,1.0,1.0,1.0,1.0,66.64
2022-04-03 18:11:16.704,0.6156835,0.3171222,0.32814908,0.54441994,0.4161962,0.20369545,0.24607359,0.35810974,0.6227837,0.083736174,0.23292074,0.56614834,0.38313878,0.061646625,-0.21406665,3.936115E-4,0.25684762,-0.43511206,-0.25658196,-0.05762243,854.61536,858.6447,846.55676,854.21246,734.1392,-0.20989990234375,-0.02508544921875,0.96478271484375,-2.093505859375,1.614990234375,1.368255615234375,1,1.0,1.0,1.0,1.0,66.64
2022-04-03 18:11:17.721,0.9766296,0.4815432,0.57810295,0.6806341,0.7110876,0.10611157,0.24135326,0.35591653,0.7730501,0.5184741,0.47938058,0.40567178,0.3141473,-0.22776328,-0.20027964,0.0809641,0.23658063,-0.38679287,-0.40887374,-0.1218562,839.707,860.65936,825.6044,874.7619,1000.07324,-0.2147216796875,-0.0101318359375,0.969970703125,-1.981353759765625,2.27294921875,1.263580322265625,1,1.0,1.0,1.0,1.0,66.64
2022-04-03 18:11:17.758,,,,,,,,,,,,,,,,,,,,,,,,,,,,,,,,,,,,,,/muse/elements/blink
2022-04-03 18:11:18.745,1.3028065,0.4682027,0.7178714,0.86094326,0.87343156,0.3536858,0.24467422,0.44558722,0.7404742,0.5846804,0.5258888,0.40567178,0.3596323,-0.16288337,-0.3020647,0.19504216,0.123123474,-0.3514083,-0.6322173,-0.22209027,827.2161,845.7509,834.4689,807.8755,794.57874,-0.21234130859375,-0.00531005859375,0.968994140625,-2.16827392578125,1.981353759765625,0.777587890625,1,1.0,1.0,1.0,1.0,66.64
2022-04-03 18:11:19.752,0.5346905,0.10515508,0.33603907,0.23585282,0.2455661,-0.14716347,-0.13830213,-0.23852105,0.42656508,0.19860558,0.042043824,0.44124332,0.24517658,0.069866076,-0.23773572,0.27769777,0.025504166,-0.52484226,-0.5227863,-0.12563922,842.52747,840.10986,845.34796,831.6484,909.011,-0.211181640625,-0.00213623046875,0.96783447265625,-2.041168212890625,1.712188720703125,1.973876953125,1,1.0,1.0,1.0,1.0,66.64
2022-04-03 18:11:20.770,0.9613539,0.18643847,0.22780366,0.92140996,0.43340558,-0.3635788,-0.22620974,0.4321887,0.631055,0.0025128552,-0.14015566,0.5861044,0.33956453,-0.25539705,-0.31752044,0.3500332,0.10363333,-0.64197206,-0.47011366,-0.16796112,835.6777,849.3773,840.5128,816.337,845.7509,-0.201416015625,0.00885009765625,0.96661376953125,-5.166473388671875,0.022430419921875,12.254486083984375,1,1.0,1.0,1.0,1.0,66.64
2022-04-03 18:11:21.791,0.9499349,0.19391605,0.6531267,0.7982896,0.60936594,0.016522277,0.077239506,0.40997955,0.6418868,0.100201234,0.2887582,0.6187965,0.3165104,-0.384991,-0.35028052,0.31346798,-0.08684405,-0.62437236,-0.55224425,-0.11459926,866.7033,853.4066,835.6777,836.8865,769.59705,-0.16473388671875,0.023681640625,0.98284912109375,-3.222503662109375,2.88604736328125,23.409881591796875,1,1.0,1.0,1.0,1.0,66.64
2022-04-03 18:11:22.826,0.8957837,0.5778314,0.92204034,0.21899268,0.5693662,0.22936219,0.24246168,0.14543964,0.5278851,0.1815755,0.32550532,0.7605572,0.5919344,-0.24427861,-0.37535235,0.41405696,0.22371635,-0.6794139,-0.7495246,0.060418837,848.5714,854.61536,842.1245,870.32965,993.22345,-0.1798095703125,0.06024169921875,0.96624755859375,1.973876953125,2.7813720703125,-4.44122314453125,1,1.0,1.0,1.0,1.0,66.64
2022-04-03 18:11:23.852,0.3672853,0.3344554,0.32425982,0.16939956,-0.078526534,-0.14505027,-0.02660098,0.074048005,0.21997179,0.08750547,0.24601302,0.7915146,0.23126353,-0.28106698,-0.55888796,0.3409241,-0.09029605,-0.6560529,-0.92063653,0.0039012781,857.8388,845.7509,845.34796,887.6557,1046.4103,-0.1767578125,0.05865478515625,0.9739990234375,-4.448699951171875,3.0804443359375,1.92901611328125,1,1.0,1.0,1.0,1.0,66.64
2022-04-03 18:11:24.564,,,,,,,,,,,,,,,,,,,,,,,,,,,,,,,,,,,,,,/muse/elements/blink
2022-04-03 18:11:24.876,0.09110537,-0.28428936,0.30797908,0.19292153,-0.049739316,-0.17454073,-0.05039188,0.032415677,0.25198552,-0.053962287,0.13350844,0.18274836,0.22549336,-0.47951362,-0.72145814,0.26656604,-0.1147329,-0.6803241,-0.9227123,0.08863315,848.1685,851.79486,840.9158,891.685,913.0403,-0.16583251953125,0.061767578125,0.98773193359375,-2.953338623046875,3.36456298828125,0.35888671875,1,1.0,1.0,1.0,1.0,66.63
2022-04-03 18:11:25.883,0.036541548,0.32909897,0.78042275,0.34216142,0.024822108,0.1353936,0.3437259,-0.037506573,0.14859521,0.097588904,0.2693837,0.13325013,0.16153702,-0.3253606,-0.35095012,0.36238918,-0.123499535,-0.43126997,-0.5938871,0.086395025,840.10986,845.7509,843.3333,855.0183,973.0769,-0.14825439453125,0.06488037109375,0.9840087890625,-8.1646728515625,1.323394775390625,22.108917236328125,1,1.0,1.0,1.0,1.0,66.63
2022-04-03 18:11:26.905,0.69804734,0.45025882,0.5464383,0.65658873,0.03440202,-0.18846895,0.025094362,-0.17541194,0.080299914,-0.057512566,0.16968136,0.62279147,0.13180599,-0.2632119,-0.26687938,0.9474303,-0.11665359,-0.45383236,-0.49849355,0.47246358,849.7802,848.97437,847.76556,861.8681,840.10986,-0.10150146484375,0.06390380859375,0.98626708984375,-1.786956787109375,-1.80938720703125,4.11224365234375,1,1.0,1.0,1.0,1.0,66.63
2022-04-03 18:11:27.915,0.74758303,0.15553679,-0.29640496,0.575866,0.66181237,-0.21115753,-0.90952194,0.37275994,0.48077068,-0.15868905,-0.11909558,0.61702275,0.36095116,-0.4554371,-0.41094086,0.29053277,-0.1511112,-0.79857594,-0.59239,0.10973985,833.2601,842.9304,849.7802,810.293,637.8388,-0.10406494140625,0.06390380859375,0.98284912109375,-2.6019287109375,3.043060302734375,-1.428070068359375,1,1.0,1.0,1.0,1.0,66.63
2022-04-03 18:11:28.930,0.47642696,0.10560699,-0.41601855,0.80531776,0.40653706,-0.33313385,-0.63298994,0.44225976,0.66849947,-0.057048433,-0.34630933,0.57628584,0.3429828,-0.4313518,-0.38764024,0.22370096,-0.06643972,-0.76293117,-0.46154487,0.024955945,839.707,850.989,847.3626,794.9817,697.47253,-0.09283447265625,0.07318115234375,0.9765625,-1.981353759765625,2.280426025390625,-0.58319091796875,1,1.0,1.0,1.0,1.0,66.63
2022-04-03 18:11:29.966,0.5046611,-0.20937133,-0.26064628,0.85431075,0.23091486,-0.4420533,-0.4232778,0.29075745,0.5824577,-0.13176583,-0.101855874,0.3434483,0.20420164,-0.44155967,-0.33241528,0.16418044,-0.11438653,-0.56443584,-0.46051362,0.013416162,836.4835,854.21246,846.1539,871.13556,915.8608,-0.1221923828125,0.083984375,0.953125,-6.77398681640625,-6.078643798828125,-0.336456298828125,1,1.0,1.0,1.0,1.0,66.63
2022-04-03 18:11:30.970,0.84022117,-0.21380989,-0.22355768,1.5005105,-0.055916257,-0.32741106,-0.14791003,0.9611723,0.39876842,-0.2693213,-0.049757686,0.75803137,0.01247491,-0.32306042,-0.3135463,0.2636666,-0.11277748,-0.51374567,-0.26090005,0.021270853,876.77655,857.8388,840.10986,821.978,684.17584,-0.159423828125,0.0018310546875,0.97894287109375,-14.542388916015625,0.179443359375,49.4366455078125,1,1.0,1.0,1.0,1.0,66.63
2022-04-03 18:11:31.389,,,,,,,,,,,,,,,,,,,,,,,,,,,,,,,,,,,,,,/muse/elements/blink
2022-04-03 18:11:31.995,1.1420797,0.39865968,0.82469094,1.3778698,0.094825014,0.165864,0.20544349,1.0528785,0.26731983,-0.03803382,0.37909162,1.4237721,0.13277674,-0.27434182,-0.23043843,1.4016716,-0.0014906895,-0.55111504,-0.42600054,0.6069619,826.8132,850.989,850.989,815.9341,792.5641,-0.074462890625,0.046630859375,0.99700927734375,1.98883056640625,1.89910888671875,-3.820648193359375,1,1.0,1.0,1.0,1.0,66.63
2022-04-03 18:11:33.018,-0.033665404,0.08720928,0.70962214,-0.109867275,0.095528476,-0.033684157,-0.10011946,0.117606685,0.21481356,-0.084830076,0.20419958,-0.041365158,0.31805885,-0.34593123,-0.45518035,0.2059699,-0.21786286,-0.55505264,-0.50775695,0.2665011,836.4835,855.82416,846.9597,843.3333,878.3883,-0.09136962890625,0.0364990234375,0.98321533203125,-1.1663818359375,4.11224365234375,-0.934600830078125,1,1.0,1.0,1.0,1.0,66.63
2022-04-03 18:11:34.036,0.11157745,-0.18408279,0.33220044,0.5825442,0.0034245006,-0.5930162,-0.56851053,0.20470269,0.27427942,-0.26697522,-0.0071608177,0.49955237,0.40056217,-0.31058392,-0.38246113,0.25479913,-0.09158067,-0.6344011,-0.6930596,0.23908411,832.8571,855.42126,852.1978,803.44324,738.5714,-0.10321044921875,0.05511474609375,0.98284912109375,-2.684173583984375,1.256103515625,1.637420654296875,1,1.0,1.0,1.0,1.0,66.63
2022-04-03 18:11:35.048,0.08686511,-0.47402337,0.24677402,0.5554397,-0.028579293,-0.529504,-0.5233732,-0.008164165,0.20091507,-0.28477672,-0.0071608177,0.50233144,0.29761037,-0.28582147,-0.3192316,0.21845287,0.008264476,-0.6772702,-0.7868124,0.17181683,845.7509,848.5714,849.3773,882.4176,967.8388,-0.09326171875,0.036376953125,0.97674560546875,-2.3626708984375,1.4056396484375,1.39068603515625,1,1.0,1.0,1.0,1.0,66.59
2022-04-03 18:11:36.066,0.10793965,-0.61827725,-0.7569087,0.18440057,-0.14324608,-0.7422371,-0.8214102,-0.36587757,0.37099087,-0.47763494,-0.49143866,0.09245122,0.08650345,-0.56808996,-0.53347015,0.1733359,0.026918761,-0.46720517,-0.752884,0.06787406,839.707,852.1978,848.5714,882.4176,939.2308,-0.11871337890625,0.04156494140625,0.9901123046875,-3.043060302734375,2.459869384765625,0.710296630859375,1,1.0,1.0,1.0,1.0,66.59
2022-04-03 18:11:37.086,0.13037436,-0.6407309,-0.7862409,0.36848074,-0.2683094,-0.58707273,-0.4462198,-0.5006248,0.40839282,-0.2431794,-0.16745771,0.3070938,0.106160454,-0.57601726,-0.49147218,0.27784598,-0.05365471,-0.5693012,-0.75372064,0.1743856,844.94507,848.5714,843.3333,882.8205,994.0293,-0.11444091796875,0.04541015625,0.981689453125,-2.474822998046875,1.801910400390625,1.981353759765625,1,1.0,1.0,1.0,1.0,66.59
2022-04-03 18:11:38.106,0.07722719,-0.33183986,-0.47855404,0.24655104,-0.237235,-0.41645655,-0.5655993,-0.37485784,0.4404617,-0.22038043,-0.22846918,0.30143484,0.087833986,-0.4535347,-0.5060398,0.21219261,-0.1036952,-0.65245616,-0.67173845,0.26775265,853.00366,852.6007,841.31866,848.5714,976.30035,-0.1038818359375,0.0501708984375,0.98046875,-3.22998046875,2.1533203125,-1.00189208984375,1,1.0,1.0,1.0,1.0,66.59
2022-04-03 18:11:39.129,-0.044269387,-0.4944225,-0.3222026,-0.2930083,-0.3119372,-0.46765852,-0.7096034,-0.26909882,0.330712,-0.46975565,-0.32657948,-0.12020848,0.23667789,-0.40273353,-0.38870186,0.1323553,-0.10551864,-0.6199788,-0.59358865,0.17944214,845.7509,846.1539,842.52747,855.42126,807.0696,-0.10955810546875,0.05078125,0.98663330078125,-0.43365478515625,1.614990234375,0.35888671875,1,1.0,1.0,1.0,1.0,66.59
2022-04-03 18:11:40.146,-0.18591581,-0.11826867,0.041731343,0.15398787,0.24913989,-0.45718306,-0.18287706,0.34854257,0.40786418,-0.119647905,0.08236284,0.45344883,0.13992268,-0.27372277,-0.35780707,0.20082667,-0.1505818,-0.57258517,-0.6404817,0.08404235,829.2308,840.9158,865.4945,848.5714,751.4652,-0.12542724609375,0.0467529296875,0.983642578125,-3.820648193359375,1.861724853515625,-2.392578125,1,1.0,1.0,1.0,1.0,66.59
2022-04-03 18:11:41.153,-0.06371491,0.12592545,0.6095474,0.2090003,0.16373287,-0.292956,0.11766804,0.21296342,0.4154751,-0.11868458,0.1458015,0.29980996,0.26915404,-0.15046002,-0.3877825,0.37262845,-0.015944852,-0.4943851,-0.6209236,0.12611441,837.6923,846.1539,850.58606,812.3077,645.09155,-0.1048583984375,0.0382080078125,1.003662109375,-2.34771728515625,-2.64678955078125,-0.538330078125,1,1.0,1.0,1.0,1.0,66.59
2022-04-03 18:11:42.177,-0.30769923,-0.0351686,0.2597268,0.2623015,-0.087413296,-0.46475047,-0.2209193,-0.005041064,0.5338214,-0.16224177,-0.015218295,0.30107337,0.2927936,-0.27049977,-0.47300243,0.38518667,0.019563232,-0.5630008,-0.7662766,0.0017732256,840.9158,851.79486,849.7802,865.89746,863.8828,-0.15985107421875,0.10101318359375,0.973388671875,4.3365478515625,3.75335693359375,-12.553558349609375,1,1.0,1.0,1.0,1.0,66.59
2022-04-03 18:11:43.189,0.4859534,0.32193604,0.5760887,0.70220315,0.28148353,0.14804594,0.25724125,0.3938319,0.6367017,0.36590877,0.30149493,0.5574665,0.3956789,-0.26706004,-0.3901069,0.33512378,0.13305314,-0.5627856,-0.65460515,0.12345797,852.6007,847.76556,850.989,821.978,797.3993,-0.15203857421875,0.12762451171875,0.9736328125,3.626251220703125,-3.5589599609375,-36.344757080078125,1,1.0,1.0,1.0,1.0,66.59
2022-04-03 18:11:44.203,0.782521,0.6891407,0.44349328,0.70156723,0.4209291,0.32837304,0.23933348,0.4305822,0.58427435,0.34219187,0.31257716,0.48112848,0.8153836,-0.32817915,-0.37546334,0.24724115,0.3668861,-0.6362416,-0.6390591,0.13722897,849.7802,844.5421,845.34796,836.4835,828.4249,-0.175048828125,0.10430908203125,0.99462890625,-1.009368896484375,4.927215576171875,-0.3887939453125,1,1.0,1.0,1.0,1.0,66.59
2022-04-03 18:11:45.210,0.55552155,0.20219569,0.23058383,0.6554063,0.15044266,-0.48480636,-0.16409123,0.35245082,0.4898377,-0.034996,-0.13085735,0.48137376,0.6564983,-0.23263349,-0.50978744,0.24523821,0.41607407,-0.576959,-0.6236154,0.10226647,833.663,857.8388,840.10986,837.28937,955.34796,-0.36328125,0.14398193359375,0.92822265625,-1.472930908203125,4.26177978515625,5.75714111328125,1,1.0,1.0,1.0,1.0,66.58
2022-04-03 18:11:46.233,0.529534,0.27944797,0.1651365,0.87402755,0.31595272,-0.5102804,-0.11434807,0.53979266,0.4898377,-0.07033379,-0.165101,0.48137376,0.6647615,-0.18492454,-0.41753513,0.29903984,0.28030333,-0.08418974,-0.40433973,0.15125123,861.06226,848.5714,845.34796,845.7509,873.95605,-0.40008544921875,0.14227294921875,0.90936279296875,-4.59075927734375,7.035675048828125,3.36456298828125,1,1.0,1.0,1.0,1.0,66.58
2022-04-03 18:11:47.057,,,,,,,,,,,,,,,,,,,,,,,,,,,,,,,,,,,,,,/muse/elements/blink
2022-04-03 18:11:47.254,0.71732724,0.15789413,-0.1587622,0.87402755,0.45789897,-0.28172287,-0.41350105,0.53979266,0.9460857,-0.15927988,-0.38389695,0.48137376,0.5814454,0.034279637,-0.19156748,0.29903984,0.29196012,-0.02769819,-0.43489364,0.15125123,849.7802,841.31866,846.9597,891.685,941.2454,-0.4366455078125,0.11962890625,0.88543701171875,-3.24493408203125,15.738677978515625,-5.78704833984375,1,1.0,1.0,1.0,1.0,66.58
2022-04-03 18:11:48.259,0.66948885,0.506062,-0.5064204,0.87402755,0.4958027,-0.13704221,-0.31114572,0.53979266,0.7821682,-0.053351898,-0.13163288,0.48137376,0.5141463,0.026143683,-0.2306345,0.29903984,0.34536225,-0.28730768,-0.57919484,0.15125123,843.3333,845.7509,843.73627,844.1392,824.7985,-0.47222900390625,0.09429931640625,0.8680419921875,-8.41888427734375,-1.39068603515625,-0.859832763671875,1,1.0,1.0,1.0,1.0,66.58
2022-04-03 18:11:49.270,-0.053696208,-0.23545146,-0.56413066,0.47874632,0.16865298,-0.5300904,-0.5735703,-0.13647585,0.9698931,-0.025939573,-0.081141524,0.44921988,0.29915485,-0.06059994,-0.2425461,0.5325002,0.083717085,-0.38515952,-0.57135403,0.5571231,849.3773,842.9304,846.55676,829.2308,869.92676,-0.50518798828125,0.12530517578125,0.85589599609375,-1.697235107421875,1.652374267578125,1.973876953125,1,1.0,1.0,1.0,1.0,66.58
2022-04-03 18:11:50.285,-0.13931255,-0.6569431,-0.31622735,0.1996902,-0.2065455,-0.54395044,-0.3737148,-0.08828962,0.5309309,-1.5384596E-4,0.060720496,0.50798416,0.25538677,-0.10466839,-0.30277392,0.41314992,0.07962562,-0.41640896,-0.49641016,0.36692455,841.31866,849.7802,850.18317,818.7546,778.86444,-0.47747802734375,0.1224365234375,0.8638916015625,-2.295379638671875,0.179443359375,-0.052337646484375,1,1.0,1.0,1.0,1.0,66.58
2022-04-03 18:11:51.297,0.03469891,-0.28204963,0.19106433,-0.044645607,0.18352728,-0.22074327,-0.24392706,-0.0025203181,0.27286848,0.02098664,0.04987445,0.52741486,0.2922737,-0.0015664499,-0.3141099,0.33699265,0.02808979,-0.42966503,-0.4164469,0.27644733,846.1539,849.7802,844.94507,849.7802,826.4103,-0.47833251953125,0.1224365234375,0.86474609375,-2.923431396484375,1.3458251953125,-0.37384033203125,1,1.0,1.0,1.0,1.0,66.58
2022-04-03 18:11:52.318,-0.08317272,-0.34392762,-0.06791474,-0.005936172,0.13975781,-0.41502348,-0.5242754,-0.32563815,0.5688626,-0.27097768,-0.45577544,0.54864156,0.26266626,-0.10576966,-0.3608193,0.4660622,0.03026148,-0.6013687,-0.66892976,0.31563962,849.3773,850.18317,846.1539,888.0586,904.57874,-0.4656982421875,0.11065673828125,0.86981201171875,-2.093505859375,1.6748046875,0.13458251953125,1,1.0,1.0,1.0,1.0,66.58
2022-04-03 18:11:53.328,-0.18070625,-0.017725358,-0.25928956,-0.3297229,-0.015349397,-0.215751,-0.5534321,-0.33509025,0.66428566,-0.29515374,-0.60451764,0.5289292,0.25757775,-0.09248246,-0.26821172,0.3597056,-0.06942975,-0.5081562,-0.56335413,0.31363845,844.5421,846.55676,846.9597,855.42126,770.80585,-0.46319580078125,0.099365234375,0.86199951171875,-3.446807861328125,3.51409912109375,1.1065673828125,1,1.0,1.0,1.0,1.0,66.58
2022-04-03 18:11:54.328,-0.2926304,0.25412047,-0.2200383,-0.30011064,0.1041896,-0.17554882,-0.75580657,-0.099841446,0.7452606,-0.35750717,-0.33077365,0.49367434,0.3322745,0.0074714,-0.22869107,0.32563075,-0.016915958,-0.5385122,-0.4467886,0.25441372,847.3626,848.1685,839.707,875.16486,1002.0879,-0.4752197265625,0.11627197265625,0.87335205078125,4.47113037109375,-5.7421875,-14.362945556640625,1,1.0,1.0,1.0,1.0,66.58
2022-04-03 18:11:55.353,0.8505423,0.24499889,0.14152056,0.62406945,0.47348908,-0.16232468,-0.06168853,0.32320166,0.6987385,-0.0042325393,0.16124648,0.60920733,0.39784133,0.058029693,-0.30877554,0.35883734,0.20736033,-0.36366457,-0.44132647,0.19172688,865.09155,853.00366,847.3626,831.6484,726.4835,-0.24432373046875,0.06756591796875,0.96484375,4.224395751953125,-6.153411865234375,-14.347991943359375,1,1.0,1.0,1.0,1.0,66.56
2022-04-03 18:11:56.376,0.89687246,-0.10758754,0.16285409,0.82676154,0.6346217,-0.42130634,-0.24571003,0.5949898,0.7506478,5.191641E-4,0.12586689,0.5331395,0.660354,-0.12819761,-0.36174342,0.05803176,0.45827258,-0.25890237,-0.60629934,-0.07179787,841.7216,844.94507,846.9597,856.63007,822.381,-0.21185302734375,0.1015625,0.96636962890625,-1.457977294921875,-0.426177978515625,-3.282318115234375,1,1.0,1.0,1.0,1.0,66.56
2022-04-03 18:11:57.390,-0.12481172,0.04088652,0.10186378,0.3960511,0.0053594066,-0.3892132,-0.20649983,0.23959336,0.3289637,-0.30457196,-0.10831535,0.24120809,0.5285959,-0.17149223,-0.25618014,0.08660098,0.5372349,-0.5404636,-0.60239863,0.016036488,810.293,850.989,844.1392,811.50183,759.5238,0.0389404296875,0.1971435546875,0.97637939453125,6.826324462890625,-25.054779052734375,0.43365478515625,1,1.0,1.0,1.0,1.0,66.56
2022-04-03 18:11:58.404,0.6459374,0.008063973,0.19436656,0.84381217,0.17702925,-0.38249263,-0.11252222,0.51884764,0.5201621,-0.2635611,0.09784112,0.18189615,0.85048324,-0.25587523,-0.21223533,0.17040704,0.4325998,-0.55045563,-0.5426959,0.045798752,834.4689,846.1539,839.304,824.7985,731.7216,0.2647705078125,0.16400146484375,0.95050048828125,-3.207550048828125,1.218719482421875,6.542205810546875,1,1.0,1.0,1.0,1.0,66.56
2022-04-03 18:11:59.408,0.89552754,0.20307386,0.20440789,0.712089,0.67773044,-0.1792985,-0.23457003,0.6352259,1.1630771,0.07040698,0.08696519,0.86977464,0.7118338,-0.22266231,-0.33107167,0.16102408,0.43244833,-0.5704955,-0.50669235,0.085652776,833.663,832.8571,855.82416,808.68134,749.0476,0.19952392578125,0.0760498046875,0.9525146484375,2.325286865234375,12.4713134765625,82.723388671875,1,1.0,1.0,1.0,1.0,66.56
2022-04-03 18:12:00.433,1.43726,1.0804657,0.76259935,1.1368296,1.2568861,0.7603732,0.4317014,1.0561118,1.2352339,0.41562423,-0.22045903,1.2780523,0.6469685,-0.008985546,-0.4875063,0.8446527,0.50444907,-0.20384498,-0.5699914,0.6238703,905.38464,836.08057,815.12823,846.1539,767.1795,0.53662109375,0.02386474609375,0.8265380859375,6.77398681640625,-12.42645263671875,17.966766357421875,1,1.0,1.0,1.0,1.0,66.56
2022-04-03 18:12:01.454,1.5288775,1.1728902,0.836936,1.3055879,1.2740449,0.42838487,0.5119168,0.7307087,1.1554091,0.342113,-0.2731016,1.0189171,0.70677024,0.101071276,-0.49133116,0.461912,0.50644356,0.11748436,-0.5753197,0.41008303,872.3443,860.65936,844.5421,794.57874,728.0952,0.62603759765625,-0.04119873046875,0.75775146484375,-1.697235107421875,1.07666015625,4.403839111328125,1,1.0,1.0,1.0,1.0,66.56
2022-04-03 18:12:02.459,0.8063267,1.0215489,0.14364067,1.0765119,0.52180976,-0.30838555,-0.06304483,0.62295145,0.40702486,0.018636748,-0.18089129,1.0224391,0.16325,-0.36803508,-0.61871773,0.39722532,0.13482562,-0.59620184,-0.9494005,0.24869962,857.8388,840.10986,846.9597,827.2161,868.71796,0.6419677734375,-0.03826904296875,0.76654052734375,-2.325286865234375,3.641204833984375,3.45428466796875,1,1.0,1.0,1.0,1.0,66.56
2022-04-03 18:12:03.476,0.88556653,0.37684882,0.22142877,0.48049212,0.4991084,-0.11526517,0.17322138,0.5178604,0.46439204,0.009424488,-0.052139916,0.8641431,0.15034375,-0.4031424,-0.4551683,0.45991942,0.14539087,-0.8074645,-0.8834462,-0.0042196484,860.2564,856.63007,853.8095,813.1135,711.1722,0.48712158203125,-0.16473388671875,0.8399658203125,8.5833740234375,1.293487548828125,22.527618408203125,1,1.0,1.0,1.0,1.0,66.56
2022-04-03 18:12:04.498,0.61448324,0.14067921,0.25176662,0.8873877,0.43150914,0.04784071,0.13774599,0.6416018,0.92257357,0.07283109,-0.077798784,1.0124941,0.92525274,-0.3398917,-0.42476052,1.0009059,0.7060795,-0.58157486,-0.9163282,0.7128751,854.61536,846.1539,850.989,901.75824,975.09155,0.47943115234375,-0.16436767578125,0.84820556640625,-1.921539306640625,2.4224853515625,0.620574951171875,1,1.0,1.0,1.0,1.0,66.55
2022-04-03 18:12:05.524,0.2556494,-0.25504532,-0.35876116,0.22837424,0.3322565,-0.23445292,-0.4426069,0.41132474,0.8521875,-0.035006896,-0.14883281,1.0144861,0.6920824,-0.2685111,-0.47877297,1.0020834,0.7662184,-0.5781807,-0.64640605,0.84566355,800.2198,837.28937,844.5421,850.18317,1010.14655,0.47369384765625,-0.16571044921875,0.8563232421875,-4.0374755859375,6.856231689453125,-0.231781005859375,1,1.0,1.0,1.0,1.0,66.55
2022-04-03 18:12:06.545,0.73308927,-0.1829682,-0.23623879,0.70773315,0.7910956,-0.3453244,-0.47677374,0.7943095,0.92940474,-0.002502097,-0.40598452,0.91258144,0.54747707,-0.2630539,-0.34373972,1.0053781,0.50053036,-0.44673237,-0.7447603,0.89486575,833.663,838.49817,844.5421,899.7436,943.663,0.33746337890625,-0.2186279296875,0.9014892578125,-1.637420654296875,1.637420654296875,1.323394775390625,1,1.0,1.0,1.0,1.0,66.55
2022-04-03 18:12:07.568,0.8514492,-0.06977808,-0.12247018,0.6605187,0.8305435,-0.48823586,-0.46810266,0.6990483,0.90455574,-0.093789436,-0.18430199,0.927261,0.37135473,-0.30274814,-0.4028991,0.90165573,0.21851972,-0.46975008,-0.8225713,0.9220725,818.3516,843.3333,857.4359,877.1795,916.26373,0.3111572265625,-0.18450927734375,0.9158935546875,0.485992431640625,3.835601806640625,-1.203765869140625,1,1.0,1.0,1.0,1.0,66.55
2022-04-03 18:12:08.588,0.7812464,0.44230217,0.3033329,0.90971076,0.24399742,-0.35704094,-0.06371802,0.66411024,0.5086227,-0.28125742,-0.027318675,0.97845995,0.3496492,-0.1280654,-0.47718403,1.0343393,-0.14926535,-0.38991576,-0.5580019,0.8837702,823.9927,840.5128,844.5421,810.696,733.3333,0.30535888671875,-0.14324951171875,0.93359375,-1.15142822265625,1.921539306640625,-0.127105712890625,1,1.0,1.0,1.0,1.0,66.55
2022-04-03 18:12:09.608,0.9142128,0.10058871,0.19671035,0.5555396,0.543406,-0.46426156,-0.15816966,0.5402331,0.6333115,-0.0060307914,-0.22589739,0.7559721,0.30093822,-0.10344575,-0.55911344,1.0700599,-0.1333786,-0.12477501,-0.73618096,0.8999733,838.49817,843.73627,841.7216,813.91943,707.1429,0.28662109375,-0.13037109375,0.9322509765625,-1.8243408203125,1.682281494140625,0.64300537109375,1,1.0,1.0,1.0,1.0,66.55
2022-04-03 18:12:10.628,0.5257808,0.048610155,0.14054167,0.31137967,0.23136154,-0.4888383,-0.4672386,0.26237106,0.035878047,-0.005497263,-0.325598,0.5763907,-0.064327955,-0.11954646,-0.4176934,0.85465574,-0.14194958,-0.36441955,-0.7001394,0.7423673,828.022,851.39197,843.3333,785.7143,695.05493,0.28564453125,-0.1270751953125,0.940185546875,-2.03369140625,1.973876953125,1.15142822265625,1,1.0,1.0,1.0,1.0,66.55
2022-04-03 18:12:11.639,0.5955125,-0.5581693,-0.036394015,0.64997077,0.51277035,-0.58441395,-0.2938717,0.5102784,0.49637547,-0.23216037,-0.118008405,0.46436822,-0.06824363,-0.08648059,-0.26064798,0.82077163,-0.26452175,-0.4665965,-0.67311054,0.74073315,834.0659,844.94507,852.6007,851.39197,721.6484,0.281494140625,-0.128662109375,0.94073486328125,-2.2430419921875,2.340240478515625,-0.142059326171875,1,1.0,1.0,1.0,1.0,66.55
2022-04-03 18:12:12.652,0.672282,-0.19662328,0.09979043,0.59123766,0.52156866,-0.73546124,-0.18209228,0.38933006,0.82931983,-0.09741628,-0.026001686,0.7631404,0.14568672,-0.21013974,-0.40729815,0.850845,-0.12976608,-0.3499271,-0.6441141,0.7436618,867.9121,848.5714,851.79486,801.4286,747.03296,0.0911865234375,-0.10528564453125,0.970947265625,-3.910369873046875,19.267730712890625,-0.25421142578125,1,1.0,1.0,1.0,1.0,66.55
2022-04-03 18:12:13.680,1.0429996,0.16074677,0.05602583,0.9401169,0.74273187,-0.12293964,-0.19242737,0.88326013,1.1991892,0.19313036,-0.029548306,1.1469923,0.652084,-0.20457965,-0.26546428,0.95691735,0.021347642,-0.13552819,-0.62328625,0.64315873,842.1245,848.1685,846.9597,843.73627,911.02563,-0.1651611328125,0.0263671875,0.98895263671875,8.620758056640625,7.357177734375,-17.69012451171875,1,1.0,1.0,1.0,1.0,66.55
2022-04-03 18:12:14.697,0.9315131,0.09171176,0.30305135,0.7815756,0.64257294,-0.02676115,0.017370012,0.6678403,1.0691059,0.20203975,0.04193579,1.1125814,0.8027213,-0.17250894,-0.28726116,0.8272943,0.15871459,-0.0253346,-0.74836135,0.29096642,841.7216,853.00366,839.304,875.16486,1002.0879,-0.21429443359375,0.067626953125,0.959716796875,-2.82623291015625,1.622467041015625,1.18133544921875,1,1.0,1.0,1.0,1.0,66.52
2022-04-03 18:12:15.699,1.123233,0.45633027,0.5480099,0.7488621,0.6714034,-0.095452935,-0.029045053,0.5298651,0.8147416,0.026969975,0.03008672,0.92546093,0.507055,-0.099843144,-0.41925418,0.36241883,0.26156002,-0.19316413,-0.58618903,0.002672603,840.9158,851.39197,844.94507,852.1978,782.49084,-0.2088623046875,0.07525634765625,0.96881103515625,-1.742095947265625,1.9140625,0.725250244140625,1,1.0,1.0,1.0,1.0,66.52
2022-04-03 18:12:16.705,0.4704276,0.41599077,0.24473041,0.4670764,0.279467,-0.17247319,-0.24764605,0.3739007,0.66427684,-0.15515931,-0.086778626,0.6423942,0.22841787,-0.013699903,-0.3030516,0.24439043,0.06075675,-0.31897894,-0.47518516,-0.043447055,838.49817,855.82416,844.5421,875.16486,879.19415,-0.2161865234375,0.07110595703125,0.96295166015625,-2.49725341796875,1.697235107421875,-0.007476806640625,1,1.0,1.0,1.0,1.0,66.52
2022-04-03 18:12:17.709,0.49554902,0.18024017,0.1366878,0.4394072,0.1585438,-0.7405758,-0.25691006,-0.08670927,0.4459208,-0.2018322,-0.06691335,0.3499886,0.12542272,-0.12221106,-0.44064647,0.19768664,-0.12755615,-0.30833346,-0.48885226,-0.11006359,844.94507,847.3626,840.9158,889.2674,908.20514,-0.218017578125,0.08038330078125,0.96588134765625,-1.996307373046875,1.801910400390625,1.1962890625,1,1.0,1.0,1.0,1.0,66.52
2022-04-03 18:12:18.718,0.65829575,-0.15873158,-0.07420066,0.44130114,0.19184408,-0.505181,-0.39509222,0.17135341,0.48755363,-0.16373776,-0.1631381,0.15650181,0.17519301,0.050820656,-0.28259316,0.063975595,-0.05371937,-0.34838912,-0.6254338,-0.12716441,851.39197,851.39197,841.31866,892.49084,948.9011,-0.21649169921875,0.0753173828125,0.965087890625,-3.00567626953125,1.256103515625,0.9869384765625,1,1.0,1.0,1.0,1.0,66.52
2022-04-03 18:12:19.752,0.79386985,0.071008995,-0.009829214,0.6564859,0.2830775,-0.02160105,-0.35768494,0.3386025,0.73426765,-0.3319567,-0.09655435,0.3756452,0.3323998,-0.029073576,-0.30884814,0.14608324,-0.08943568,-0.5961608,-0.65709335,-0.16229284,842.52747,853.00366,853.8095,812.3077,697.0696,-0.2132568359375,0.0711669921875,0.9688720703125,-2.4224853515625,1.532745361328125,0.83740234375,1,1.0,1.0,1.0,1.0,66.52
2022-04-03 18:12:20.758,0.6031831,0.4353821,0.40523985,0.23629145,0.54995066,0.09428579,0.1394094,0.4327909,0.7759365,0.4158412,0.37090287,0.48711565,0.3092008,0.122538015,-0.47078788,0.22214696,-0.26236466,-0.42817786,-0.53169924,-0.1909685,846.1539,836.8865,854.21246,844.94507,721.6484,-0.1412353515625,0.04132080078125,0.98199462890625,3.790740966796875,-3.72344970703125,-51.462860107421875,1,1.0,1.0,1.0,1.0,66.52
2022-04-03 18:12:21.762,0.8036464,1.0848223,1.0963694,0.08594719,0.5192453,0.40462252,0.46206218,0.16458453,0.81606525,0.59685177,0.4800956,-0.013859167,0.76923275,0.052928373,-0.5776016,0.13023241,0.15941653,-0.35038966,-0.58186835,-0.02839746,838.9011,840.9158,841.7216,820.7692,679.34064,-0.13580322265625,0.0240478515625,0.98785400390625,-2.385101318359375,4.5458984375,0.800018310546875,1,1.0,1.0,1.0,1.0,66.52
2022-04-03 18:12:22.770,0.837693,0.3914512,0.53229266,0.60830766,0.7488835,-0.3777829,0.2561973,0.44992322,1.0692695,0.3082824,0.31933883,0.718699,0.724381,-0.122520395,-0.37695426,0.1441206,0.17012814,-0.20254023,-0.6613601,-0.19116539,846.55676,849.7802,847.76556,856.2271,747.4359,-0.36334228515625,0.13214111328125,0.90716552734375,0.829925537109375,10.430145263671875,-0.381317138671875,1,1.0,1.0,1.0,1.0,66.52
2022-04-03 18:12:23.773,0.9144021,0.13991998,-0.029508833,0.94828266,0.9007166,-0.51949793,0.06861734,0.86515677,1.043099,0.13541801,0.31287384,0.86939293,0.68881255,-0.07794861,-0.18697459,0.22185217,0.23971324,-0.15371156,-0.60134387,0.1099952,843.3333,863.8828,841.31866,814.7253,710.3663,-0.37518310546875,0.17108154296875,0.9141845703125,-1.95892333984375,-0.64300537109375,0.426177978515625,1,1.0,1.0,1.0,1.0,66.52
2022-04-03 18:12:24.802,0.8082659,0.007681726,-0.28165317,0.31160215,0.41792086,-0.110586554,-0.21080703,0.46341866,0.80875754,0.003185112,-0.10000748,0.4094147,0.57346535,-0.14738753,-0.23605405,0.15494494,0.23219548,-0.30131444,-0.6906077,-0.07436564,840.5128,857.8388,854.21246,807.0696,715.6044,-0.368408203125,0.16015625,0.90966796875,-2.093505859375,1.801910400390625,1.136474609375,1,1.0,1.0,1.0,1.0,66.50
2022-04-03 18:12:25.841,0.75429094,0.39264655,0.326845,0.39761385,0.5607984,0.08622301,-0.15872177,0.45716104,0.9104215,0.13196687,-0.06279648,0.52761924,0.62725514,-0.052625354,-0.3761582,0.25041926,0.25488603,-0.38832664,-0.6680473,-0.06287434,841.31866,850.58606,840.10986,821.1722,712.381,-0.369140625,0.16436767578125,0.912109375,-1.667327880859375,1.622467041015625,1.07666015625,1,1.0,1.0,1.0,1.0,66.50
2022-04-03 18:12:26.859,0.93396527,0.4807729,0.58846676,0.4973799,0.4898092,0.11814765,0.15895915,0.31500018,0.77501076,0.20669554,0.37140724,0.5078572,0.5937145,-0.14586742,-0.33788052,0.10063652,0.20577827,-0.3964191,-0.6095389,-0.27759686,823.9927,851.79486,846.9597,809.4872,803.0403,-0.36944580078125,0.16412353515625,0.9095458984375,-2.205657958984375,1.697235107421875,0.538330078125,1,1.0,1.0,1.0,1.0,66.50
2022-04-03 18:12:27.870,0.9364476,0.30414906,0.61884004,0.43959692,0.4505177,-0.041853882,0.16059884,0.35556257,0.7173632,0.11894983,0.30733213,0.5078572,0.5771057,-0.11554119,-0.29961994,0.1555317,0.21685109,-0.41141382,-0.6358385,-0.29161307,856.2271,848.5714,839.707,879.19415,971.06226,-0.3660888671875,0.167724609375,0.914794921875,-1.772003173828125,1.45050048828125,0.859832763671875,1,1.0,1.0,1.0,1.0,66.50
2022-04-03 18:12:28.900,0.5575863,-0.2249244,0.023617303,0.3761733,0.38948625,-0.35259464,-0.4852302,0.1780995,0.76573354,-0.31124604,-0.114118166,0.5868217,0.5311273,-0.03556933,-0.110227875,0.15969774,0.1587009,-0.41697705,-0.5055638,-0.18659082,844.94507,849.3773,846.1539,874.35895,984.7619,-0.36669921875,0.17694091796875,0.9085693359375,-1.712188720703125,1.801910400390625,1.2261962890625,1,1.0,1.0,1.0,1.0,66.50
2022-04-03 18:12:29.923,0.5542272,-0.20707487,0.19235785,0.37483266,0.48534384,-0.2934641,-0.3044599,0.38661057,0.6754769,-0.27190864,-0.09201162,0.5001139,0.4766943,-0.072097346,-0.25181913,0.0942921,0.19447759,-0.43301585,-0.54736525,-0.22550845,846.1539,860.65936,836.08057,851.79486,995.64105,-0.36614990234375,0.1834716796875,0.90869140625,-1.757049560546875,1.652374267578125,1.1065673828125,1,1.0,1.0,1.0,1.0,66.50
2022-04-03 18:12:30.946,-0.19164535,0.021879697,0.28594792,0.11466897,0.11105252,-0.26189274,-0.1263076,0.14293504,0.5194851,-0.07992742,0.0214143,0.37004372,0.27316907,-0.08689025,-0.172638,0.090068474,0.11044438,-0.2995126,-0.6513329,-0.347187,851.79486,850.989,831.6484,868.315,867.50916,-0.36749267578125,0.17938232421875,0.90692138671875,-1.98883056640625,1.973876953125,0.82244873046875,1,1.0,1.0,1.0,1.0,66.50
2022-04-03 18:12:31.958,-0.1352123,-0.12516145,0.22703657,-0.022827514,0.20141493,-0.2353042,-0.15040633,0.0057784673,0.6578558,-0.114994995,-0.0016716245,0.354716,0.25241363,0.02541554,-0.253001,0.008766691,0.10089236,-0.31101504,-0.717861,-0.38892698,853.4066,855.0183,838.9011,834.87177,886.04395,-0.3692626953125,0.18218994140625,0.9066162109375,-2.340240478515625,1.8243408203125,0.8673095703125,1,1.0,1.0,1.0,1.0,66.50
2022-04-03 18:12:32.965,0.37359065,-0.20059672,-0.028159363,-0.058361106,0.06304514,-0.37942943,-0.14443101,-0.085155554,0.2346964,-0.37990353,-0.17795315,0.30572236,0.18028215,0.01518411,-0.29590613,-0.28108805,0.018047638,-0.38830224,-0.69298756,-0.4702184,843.73627,853.8095,845.34796,852.6007,806.6667,-0.3673095703125,0.18218994140625,0.9072265625,-2.325286865234375,1.906585693359375,0.904693603515625,1,1.0,1.0,1.0,1.0,66.50
2022-04-03 18:12:33.970,0.557551,0.15893985,0.10932227,-0.011141456,0.15841298,-0.17137182,-0.2389705,-0.04533196,0.57827544,-0.00900639,0.008234793,0.45049787,0.31124642,-0.1021486,-0.43845925,-0.28872854,0.0283242,-0.3955914,-0.77542824,-0.412241,836.4835,851.39197,851.79486,832.8571,737.3626,-0.36798095703125,0.15216064453125,0.9320068359375,-5.921630859375,-11.805877685546875,-17.82470703125,1,1.0,1.0,1.0,1.0,66.50
2022-04-03 18:12:34.997,0.9149288,0.5564301,0.5472082,0.35225472,0.4796329,0.03670116,-0.20429091,0.3265029,0.7442482,0.2828453,0.10538698,0.5768024,0.57945055,-0.051710818,-0.40157583,-0.0053546657,0.31730777,-0.4204168,-0.7481339,-0.21457097,838.0952,848.1685,863.0769,852.1978,753.0769,-0.198486328125,0.05267333984375,0.9725341796875,-0.844879150390625,0.95703125,1.1962890625,1,1.0,1.0,1.0,1.0,66.48
2022-04-03 18:12:35.998,0.2663778,0.44993427,0.29441965,0.27841628,-0.010085952,-0.09477986,-0.67280924,0.09714404,0.6709797,0.27311483,-0.17728701,0.53463477,0.6569396,-0.06694345,-0.5304206,0.068551175,0.46123827,-0.4706551,-0.6719488,-0.05923275,846.55676,850.989,850.18317,833.2601,816.337,-0.19854736328125,0.0653076171875,0.9735107421875,-1.973876953125,1.622467041015625,1.6448974609375,1,1.0,1.0,1.0,1.0,66.48
2022-04-03 18:12:37.018,0.23846233,0.16601956,-0.051687103,0.22847977,0.03219613,-0.1661284,-0.6416033,-0.02605025,0.81354785,0.054198757,-0.43064693,0.55953413,0.5801184,0.084742434,-0.37666267,0.0813064,0.43601677,-0.32853577,-0.65998316,-0.21586046,843.3333,850.18317,846.1539,815.12823,743.00366,-0.20428466796875,0.0809326171875,0.968505859375,-0.859832763671875,3.117828369140625,3.2598876953125,1,1.0,1.0,1.0,1.0,66.48
2022-04-03 18:12:38.024,0.14436701,0.021015206,-0.23274797,0.021352148,-0.11187408,-0.24066506,-0.61204517,-0.069802515,0.37621957,0.03916732,-0.4262531,0.55527896,0.5058371,0.08228125,-0.34451994,0.009014414,0.4751706,-0.5265407,-0.67009956,-0.42440307,832.0513,855.42126,844.1392,811.9048,698.68134,-0.2113037109375,0.09625244140625,0.9622802734375,-2.071075439453125,1.966400146484375,1.128997802734375,1,1.0,1.0,1.0,1.0,66.48
2022-04-03 18:12:39.062,-0.25751856,-0.25299022,-0.38938755,-0.22831811,-0.29959324,-0.5147339,-0.5039303,-0.16806953,0.1838855,-0.20615605,-0.26521447,0.08274564,0.49671236,-0.06646117,-0.18019475,-0.1335479,0.18687254,-0.5952477,-0.62166715,-0.42736024,831.2454,857.4359,845.34796,816.7399,763.5531,-0.21722412109375,0.1025390625,0.96356201171875,-2.026214599609375,1.55517578125,1.502838134765625,1,1.0,1.0,1.0,1.0,66.48
2022-04-03 18:12:40.080,0.0041217688,-0.097518854,-0.50189275,0.06113035,-0.044505257,-0.6757966,-0.41829374,-0.12512332,-0.069782354,-0.29230753,-0.2618198,0.087273106,0.37670615,-0.15853803,-0.24391596,-0.22629549,0.1205132,-0.5074141,-0.6461474,-0.4680241,842.52747,855.42126,843.3333,855.82416,843.3333,-0.21160888671875,0.10064697265625,0.9678955078125,-2.056121826171875,1.7645263671875,0.919647216796875,1,1.0,1.0,1.0,1.0,66.48
2022-04-03 18:12:41.087,-0.2193852,0.10750474,-0.44242817,0.08740868,-0.03497012,-0.3825623,-0.49029896,-0.053807322,0.23200786,-0.21706866,-0.4644459,0.06594751,0.2658158,-0.13160518,-0.21986182,-0.17760113,0.2707331,-0.42839,-0.7646008,-0.5473387,837.28937,846.1539,844.1392,863.8828,976.30035,-0.21234130859375,0.10003662109375,0.96759033203125,-2.28790283203125,1.996307373046875,0.695343017578125,1,1.0,1.0,1.0,1.0,66.48
2022-04-03 18:12:42.107,0.052940875,-0.20675035,-0.30164698,0.050438598,-0.076070316,-0.3944596,-0.56742746,-0.13183859,0.39971465,-0.020835498,-0.3099206,0.07790582,0.45747676,0.062867686,-0.28329304,-0.18625583,0.12966326,-0.46198672,-0.5829475,-0.5093959,840.10986,847.3626,843.3333,842.52747,950.5128,-0.20989990234375,0.0802001953125,0.9593505859375,-7.259979248046875,-6.41510009765625,-11.581573486328125,1,1.0,1.0,1.0,1.0,66.48
2022-04-03 18:12:43.115,0.97955996,0.14145425,-0.04649709,0.78227884,0.40195188,-0.27774295,-0.21095072,0.26020467,0.4288703,0.074567184,-0.036847353,0.64647436,0.626801,0.04910277,-0.36818936,0.19829501,0.37877217,-0.42100683,-0.6066635,0.16501805,858.24176,848.5714,1276.0806,867.1062,937.2161,0.12420654296875,0.0675048828125,0.98455810546875,-1.98883056640625,-4.11224365234375,-0.76263427734375,1,1.0,1.0,1.0,1.0,66.48
2022-04-03 18:12:44.127,0.79212314,0.41612613,-0.025064714,0.76996875,0.27014053,-0.21179059,-0.34177053,0.53700054,0.6402454,0.26538956,-0.19253749,0.7985974,0.83348656,-0.08174573,-0.3462138,0.45634302,0.618828,-0.29414725,-0.71464205,0.41371804,766.3736,853.4066,670.87915,759.12085,673.2967,0.23077392578125,0.061767578125,0.9693603515625,5.316009521484375,5.51788330078125,40.06072998046875,1,1.0,1.0,4.0,1.0,66.48
2022-04-03 18:12:45.145,0.7825176,0.5431818,-0.13415255,0.68151647,0.28817585,-0.16087967,-0.44414592,0.41382578,0.16247135,0.11630274,-0.33005977,0.4170786,0.85283,0.031290818,-0.33523583,0.36885953,0.40352592,-0.050768226,-0.6811701,0.39832997,910.2198,855.0183,799.41394,951.7216,971.06226,-0.1214599609375,0.0667724609375,0.96575927734375,-5.2337646484375,25.31646728515625,72.95120239257812,1,1.0,1.0,1.0,1.0,66.45
2022-04-03 18:12:46.146,0.7825176,0.45612583,-0.13415255,1.6202428,0.28817585,0.12875253,-0.44414592,1.3141329,0.16247135,-0.0048667965,-0.33005977,1.2296857,0.85283,0.27678013,-0.33523583,1.6752199,0.40352592,0.2687653,-0.6811701,1.1493422,833.2601,863.0769,823.1868,850.18317,1017.3993,-0.13897705078125,0.1253662109375,0.97882080078125,-1.652374267578125,14.676971435546875,-8.11981201171875,1,1.0,1.0,1.0,1.0,66.45
2022-04-03 18:12:47.171,0.7825176,0.6641947,0.6391206,1.0061781,0.28817585,0.08071148,-0.051121615,0.8374517,0.16247135,0.04394232,0.22951688,0.99423903,0.85283,0.13461177,-0.25087333,0.7670301,0.40352592,0.05550361,-0.5810342,0.3191529,840.10986,847.76556,852.6007,885.2381,990.0,-0.29937744140625,0.1336669921875,0.93634033203125,-0.10467529296875,-0.46356201171875,2.355194091796875,1,1.0,1.0,1.0,1.0,66.45
2022-04-03 18:12:48.183,1.0563523,0.5390765,0.44905028,0.6433756,0.7528844,-0.46157104,-0.028797168,0.65709525,0.6928181,-0.060537286,0.20707676,0.8131519,0.48956415,-0.09640116,-0.23959032,0.25039408,-0.15099594,-0.34011334,-0.6523409,-0.08665142,859.45056,842.1245,847.3626,792.5641,733.73627,-0.307861328125,0.1656494140625,0.92449951171875,0.112152099609375,2.37762451171875,9.637603759765625,1,1.0,1.0,1.0,1.0,66.45
2022-04-03 18:12:49.201,1.1325194,0.2933701,0.37842104,0.5949228,0.77649426,-0.24774742,-0.079449184,0.26770708,0.77760184,-0.09736108,-0.11579564,0.7210434,0.620486,0.005403945,-0.057283618,0.2979616,0.12695552,-0.34169635,-0.34376493,0.1278182,833.2601,848.1685,847.3626,891.28204,944.4689,-0.31280517578125,0.32354736328125,0.880615234375,4.687957763671875,5.2935791015625,14.796600341796875,1,1.0,1.0,1.0,1.0,66.45
